  44.82
 133.00
 587675987
Year Mnth Day Hr dayl(s) prcp(mm/day) srad(W/m2) swe(mm) tmax(C) tmin(C) vp(Pa)
2000 01 01 12	31185.97	0.00	189.56	0.00	-2.36	-14.36	202.51
2000 01 02 12	31302.05	0.00	200.48	0.00	4.81	-8.61	319.42
2000 01 03 12	31370.88	5.50	126.63	0.00	9.25	-1.10	566.46
2000 01 04 12	31449.59	2.19	182.02	0.00	10.43	-2.10	524.66
2000 01 05 12	31449.59	28.85	154.59	0.00	10.74	-3.62	467.68
2000 01 06 12	31449.59	0.00	205.84	0.00	-0.62	-13.89	211.67
2000 01 07 12	31596.23	3.51	163.35	0.00	1.49	-11.94	247.92
2000 01 08 12	31716.49	1.09	139.45	0.00	1.18	-6.37	383.49
2000 01 09 12	31795.20	0.00	161.64	0.00	1.21	-7.73	342.46
2000 01 10 12	31795.20	0.00	178.67	0.00	4.12	-6.08	386.57
2000 01 11 12	31805.06	26.02	140.02	0.00	8.14	-2.87	495.17
2000 01 12 12	32025.18	0.11	172.47	0.00	9.20	-0.59	586.39
2000 01 13 12	32140.80	0.00	195.12	0.00	0.19	-10.89	267.18
2000 01 14 12	32140.80	0.00	207.21	0.00	-7.61	-19.41	131.99
2000 01 15 12	32287.44	0.00	164.76	0.00	-13.23	-21.57	114.94
2000 01 16 12	32464.01	0.00	230.14	0.00	-7.98	-21.92	109.73
2000 01 17 12	32486.41	16.83	178.60	0.00	-2.67	-17.07	160.57
2000 01 18 12	32496.27	7.44	144.61	0.00	-7.45	-17.20	160.00
2000 01 19 12	32809.61	0.00	221.01	0.00	-10.43	-22.12	112.28
2000 01 20 12	32832.01	0.00	240.52	0.00	-9.55	-22.93	97.28
2000 01 21 12	32841.88	0.47	222.65	0.00	-8.00	-20.21	127.29
2000 01 22 12	33155.20	7.95	147.63	0.00	-11.11	-20.41	119.82
2000 01 23 12	33177.60	0.00	214.45	0.00	-12.11	-22.46	107.00
2000 01 24 12	33324.24	0.06	269.50	0.00	-5.55	-21.33	117.74
2000 01 25 12	33523.20	0.41	229.54	0.00	-1.72	-13.19	223.27
2000 01 26 12	33523.20	19.06	194.11	0.00	4.75	-8.87	313.80
2000 01 27 12	33753.20	0.38	240.87	0.00	2.69	-8.97	309.65
2000 01 28 12	33868.81	0.00	250.67	0.00	-6.51	-18.40	145.31
2000 01 29 12	33950.76	0.00	247.99	0.00	-6.66	-18.15	147.04
2000 01 30 12	34214.41	0.00	286.91	0.00	0.14	-15.06	200.00
2000 01 31 12	34214.41	0.00	301.01	0.00	4.37	-12.75	226.23
2000 02 01 12	34481.29	11.51	151.76	0.00	3.53	-4.95	426.56
2000 02 02 12	34560.00	0.00	278.44	0.00	1.89	-11.38	256.84
2000 02 03 12	34758.06	0.00	228.76	0.00	-6.38	-15.73	180.10
2000 02 04 12	34905.61	0.00	276.70	0.00	-5.18	-17.37	155.44
2000 02 05 12	34987.57	0.00	308.36	0.00	-4.34	-19.18	137.93
2000 02 06 12	35251.21	0.00	304.12	0.00	-2.21	-16.43	172.41
2000 02 07 12	35251.21	0.00	297.30	0.00	-2.27	-15.74	180.94
2000 02 08 12	35596.81	0.00	349.90	0.00	2.05	-19.30	133.90
2000 02 09 12	35596.81	0.00	306.27	0.00	-2.15	-16.17	177.29
2000 02 10 12	35942.42	0.00	284.83	0.00	1.80	-10.52	271.53
2000 02 11 12	35942.42	7.95	171.72	0.00	-0.65	-9.46	299.91
2000 02 12 12	36288.00	12.87	246.73	0.00	1.75	-13.22	221.15
2000 02 13 12	36288.00	0.00	334.41	0.00	-2.78	-17.78	151.95
2000 02 14 12	36633.59	10.57	241.64	0.00	2.27	-11.68	254.25
2000 02 15 12	36633.59	41.44	201.13	0.00	3.74	-6.24	383.06
2000 02 16 12	36979.17	0.00	304.96	0.00	0.82	-10.70	268.64
2000 02 17 12	36979.17	3.75	255.45	0.00	0.43	-12.59	234.20
2000 02 18 12	37324.79	0.00	355.76	0.00	-7.79	-21.97	107.31
2000 02 19 12	37324.79	9.29	253.38	0.00	-4.34	-17.08	163.32
2000 02 20 12	37670.39	3.60	268.52	0.00	-1.32	-14.65	194.97
2000 02 21 12	37670.39	0.00	366.87	0.00	-0.50	-14.75	193.41
2000 02 22 12	38016.01	0.00	391.83	0.00	-1.48	-17.53	152.53
2000 02 23 12	38016.01	0.00	417.20	0.00	3.80	-14.87	192.13
2000 02 24 12	38361.60	0.00	311.05	0.00	9.87	-1.24	560.90
2000 02 25 12	38361.60	0.00	378.56	0.00	11.89	-3.08	487.06
2000 02 26 12	38707.20	0.00	335.54	0.00	4.31	-7.47	348.54
2000 02 27 12	38707.20	0.00	300.81	0.00	6.98	-3.09	491.01
2000 02 28 12	39052.79	2.07	219.75	0.00	9.79	2.56	736.00
2000 02 29 12	39062.66	6.86	204.00	0.00	8.72	0.13	613.80
2000 03 01 12	39398.37	0.26	195.32	0.00	4.64	-0.99	572.53
2000 03 02 12	39628.39	1.69	226.91	0.00	6.17	-0.44	590.23
2000 03 03 12	39744.00	7.55	87.05	0.00	1.71	-1.26	561.56
2000 03 04 12	40089.58	10.87	118.55	0.00	3.14	-1.00	570.49
2000 03 05 12	40089.58	0.88	256.26	0.00	4.22	-2.67	502.83
2000 03 06 12	40435.20	0.01	241.95	0.00	4.00	-2.26	518.30
2000 03 07 12	40435.20	0.00	358.78	0.00	5.02	-4.86	427.64
2000 03 08 12	40780.79	0.00	434.72	0.00	8.66	-4.86	427.81
2000 03 09 12	40780.79	0.00	364.42	0.00	7.63	-2.02	527.60
2000 03 10 12	41126.39	5.31	319.82	0.00	8.04	-4.17	451.56
2000 03 11 12	41126.39	0.00	260.01	0.00	0.31	-5.66	403.40
2000 03 12 12	41472.01	20.46	185.56	0.00	1.58	-3.99	455.88
2000 03 13 12	41817.59	15.27	297.98	0.00	4.65	-5.15	422.59
2000 03 14 12	41817.59	0.00	504.18	0.00	2.85	-12.51	234.02
2000 03 15 12	42163.20	0.00	509.01	0.00	6.36	-9.42	300.91
2000 03 16 12	42163.20	0.00	422.37	0.00	11.73	0.89	651.96
2000 03 17 12	42508.81	13.57	393.81	0.00	10.69	-6.36	378.63
2000 03 18 12	42508.81	5.18	327.12	0.00	-3.06	-13.41	219.89
2000 03 19 12	42854.43	0.00	517.28	0.00	0.62	-13.75	213.15
2000 03 20 12	42854.43	0.00	515.12	0.00	4.24	-9.95	285.76
2000 03 21 12	43199.99	0.00	501.78	0.00	6.44	-6.80	365.80
2000 03 22 12	43545.61	0.00	527.02	0.00	10.36	-4.66	432.56
2000 03 23 12	43545.61	0.00	541.38	0.00	12.52	-3.67	464.12
2000 03 24 12	43891.18	0.00	548.44	0.00	14.85	-2.01	528.60
2000 03 25 12	43891.18	0.00	541.27	0.00	11.37	-4.14	452.94
2000 03 26 12	44236.80	1.67	535.18	0.00	13.03	-2.01	530.21
2000 03 27 12	44236.80	2.40	492.21	0.00	15.21	-1.59	545.35
2000 03 28 12	44582.40	0.00	501.03	0.00	12.94	0.01	612.82
2000 03 29 12	44582.40	32.66	322.90	0.00	10.90	0.90	646.59
2000 03 30 12	44927.99	6.80	314.62	0.00	9.10	-0.42	592.72
2000 03 31 12	45273.61	0.00	439.80	0.00	9.66	-0.58	587.98
2000 04 01 12	45273.61	0.00	499.52	0.00	10.40	-2.24	519.23
2000 04 02 12	45619.19	0.00	497.30	0.00	12.68	-0.24	600.76
2000 04 03 12	45619.19	5.84	380.06	0.00	14.47	0.71	639.31
2000 04 04 12	45964.80	10.61	252.29	0.00	10.92	3.20	767.38
2000 04 05 12	45964.80	13.51	240.65	0.00	10.35	3.08	766.14
2000 04 06 12	46310.38	3.59	346.63	0.00	9.87	-1.55	545.47
2000 04 07 12	46310.38	0.17	459.58	0.00	10.88	-0.39	600.00
2000 04 08 12	46656.00	2.78	350.69	0.00	10.76	0.54	628.08
2000 04 09 12	46771.62	4.49	356.05	0.00	13.78	1.87	696.67
2000 04 10 12	47001.59	13.15	403.20	0.00	13.82	-1.14	564.71
2000 04 11 12	47337.32	0.00	459.90	0.00	7.35	-3.89	458.43
2000 04 12 12	47347.18	6.73	293.96	0.00	8.35	-0.75	582.12
2000 04 13 12	47692.79	1.82	419.08	0.00	6.37	-3.27	479.86
2000 04 14 12	47692.79	0.00	511.17	0.00	8.28	-4.48	439.27
2000 04 15 12	48038.42	0.00	573.07	0.00	14.31	-2.23	522.13
2000 04 16 12	48038.42	0.00	550.95	0.00	20.31	4.36	838.42
2000 04 17 12	48383.98	0.00	500.01	0.00	9.79	-2.62	506.20
2000 04 18 12	48383.98	0.00	476.55	0.00	7.65	-3.64	467.18
2000 04 19 12	48729.59	0.00	466.96	0.00	9.91	-1.10	564.67
2000 04 20 12	48729.59	1.34	277.04	0.00	7.53	1.13	655.23
2000 04 21 12	49075.20	0.00	482.33	0.00	12.91	1.57	682.94
2000 04 22 12	49075.20	14.41	301.54	0.00	9.09	0.52	629.47
2000 04 23 12	49420.80	54.77	172.45	0.00	6.30	1.90	698.09
2000 04 24 12	49420.80	20.77	178.60	0.00	7.14	2.68	738.48
2000 04 25 12	49766.41	4.65	238.17	0.00	5.43	-0.44	591.44
2000 04 26 12	49766.41	0.00	443.33	0.00	6.80	-1.75	539.53
2000 04 27 12	50112.01	2.03	495.62	0.00	9.16	-1.00	570.42
2000 04 28 12	50112.01	1.00	385.70	0.00	6.86	-0.21	601.39
2000 04 29 12	50457.57	0.00	563.29	0.00	12.08	-0.62	585.51
2000 04 30 12	50457.57	1.00	596.54	0.00	17.33	1.93	699.43
2000 05 01 12	50803.18	0.00	605.49	0.00	13.46	-1.94	535.85
2000 05 02 12	50803.18	0.52	545.22	0.00	15.04	2.66	743.83
2000 05 03 12	51148.78	0.00	588.65	0.00	13.98	-0.46	591.38
2000 05 04 12	51148.78	0.00	574.57	0.00	15.38	1.22	668.30
2000 05 05 12	51412.40	0.61	553.24	0.00	18.44	4.65	852.48
2000 05 06 12	51494.39	0.00	591.44	0.00	23.58	5.93	929.40
2000 05 07 12	51641.94	2.28	434.02	0.00	20.19	7.29	1023.52
2000 05 08 12	51839.99	6.10	398.02	0.00	22.09	8.19	1095.43
2000 05 09 12	51862.39	5.61	405.94	0.00	22.07	7.41	1032.47
2000 05 10 12	52185.61	14.20	274.88	0.00	9.32	1.83	693.63
2000 05 11 12	52185.61	7.83	221.86	0.00	7.85	2.06	708.09
2000 05 12 12	52449.24	14.71	237.65	0.00	10.58	4.26	829.68
2000 05 13 12	52531.20	0.00	533.19	0.00	15.61	2.60	735.46
2000 05 14 12	52646.80	7.86	338.39	0.00	14.17	4.32	826.00
2000 05 15 12	52876.81	0.00	529.34	0.00	17.67	4.76	861.89
2000 05 16 12	52876.81	0.00	570.01	0.00	18.48	3.24	770.19
2000 05 17 12	53075.77	0.00	549.53	0.00	18.49	4.39	839.94
2000 05 18 12	53222.39	0.00	512.83	0.00	19.09	6.53	962.70
2000 05 19 12	53244.79	15.45	372.76	0.00	16.05	4.27	835.19
2000 05 20 12	53558.15	0.00	530.08	0.00	14.62	1.20	662.12
2000 05 21 12	53568.00	0.00	550.35	0.00	18.34	3.08	762.70
2000 05 22 12	53590.40	1.14	459.13	0.00	18.06	6.86	988.69
2000 05 23 12	53903.74	0.00	455.54	0.00	16.91	5.67	919.03
2000 05 24 12	53913.61	4.30	201.88	0.00	10.91	5.07	881.47
2000 05 25 12	53936.00	15.66	172.20	0.00	11.54	6.60	970.47
2000 05 26 12	54112.55	10.34	236.58	0.00	14.10	6.96	996.83
2000 05 27 12	54259.18	0.00	477.67	0.00	19.32	6.66	975.12
2000 05 28 12	54259.18	0.00	389.58	0.00	16.19	6.84	988.46
2000 05 29 12	54374.80	0.00	357.95	0.00	14.57	6.26	940.88
2000 05 30 12	54594.89	0.00	507.81	0.00	16.04	2.17	715.46
2000 05 31 12	54604.77	0.00	492.27	0.00	18.43	5.02	881.64
2000 06 01 12	54604.77	0.00	471.09	0.00	21.72	8.72	1137.56
2000 06 02 12	54683.48	0.00	524.11	0.00	27.13	9.47	1197.44
2000 06 03 12	54803.77	0.00	419.82	0.00	21.25	10.28	1262.31
2000 06 04 12	54950.41	0.00	492.45	0.00	21.25	6.97	997.94
2000 06 05 12	54950.41	6.18	326.34	0.00	18.39	7.25	1021.79
2000 06 06 12	54950.41	0.00	488.09	0.00	18.42	4.78	862.35
2000 06 07 12	55029.13	11.45	321.65	0.00	16.40	5.61	919.73
2000 06 08 12	55097.95	14.32	348.11	0.00	16.64	4.44	835.28
2000 06 09 12	55214.08	2.65	397.85	0.00	22.75	9.11	1168.59
2000 06 10 12	55296.01	0.00	438.96	0.00	21.97	9.92	1233.59
2000 06 11 12	55296.01	4.21	256.38	0.00	14.14	5.97	927.42
2000 06 12 12	55296.01	5.94	253.69	0.00	11.65	3.79	800.48
2000 06 13 12	55296.01	0.00	487.78	0.00	17.72	3.83	800.00
2000 06 14 12	55296.01	0.00	490.72	0.00	20.00	5.61	912.50
2000 06 15 12	55318.41	0.00	436.04	0.00	18.93	7.35	1028.20
2000 06 16 12	55374.72	3.12	270.89	0.00	19.49	10.93	1314.04
2000 06 17 12	55374.72	0.00	464.79	0.00	28.05	13.85	1588.18
2000 06 18 12	55411.63	6.08	392.35	0.00	30.65	10.90	1312.16
2000 06 19 12	55411.63	3.13	338.45	0.00	23.90	11.90	1391.76
2000 06 20 12	55411.63	0.00	453.26	0.00	24.13	11.14	1331.58
2000 06 21 12	55411.63	0.00	453.08	0.00	25.46	12.21	1417.17
2000 06 22 12	55411.63	11.30	296.15	0.00	23.91	13.29	1525.78
2000 06 23 12	55411.63	0.00	458.79	0.00	27.72	13.52	1558.70
2000 06 24 12	55374.72	0.00	479.29	0.00	26.00	10.68	1294.19
2000 06 25 12	55318.41	0.00	439.57	0.00	24.53	11.38	1350.78
2000 06 26 12	55296.01	3.47	323.79	0.00	26.78	14.06	1605.14
2000 06 27 12	55296.01	0.00	436.31	0.00	28.77	14.89	1702.99
2000 06 28 12	55296.01	13.65	311.45	0.00	25.49	13.01	1492.44
2000 06 29 12	55296.01	0.00	414.46	0.00	25.91	13.44	1549.94
2000 06 30 12	55296.01	0.28	382.14	0.00	23.01	12.10	1408.32
2000 07 01 12	55286.14	6.81	254.57	0.00	20.09	11.10	1327.62
2000 07 02 12	55149.38	0.00	451.33	0.00	25.19	11.42	1353.61
2000 07 03 12	55066.03	0.00	444.05	0.00	26.54	12.80	1463.62
2000 07 04 12	54972.81	4.16	283.62	0.00	25.08	14.38	1630.54
2000 07 05 12	54950.41	8.23	301.52	0.00	25.07	13.46	1550.76
2000 07 06 12	54950.41	0.00	433.26	0.00	22.34	9.82	1225.64
2000 07 07 12	54940.54	0.00	426.66	0.00	24.41	11.85	1387.72
2000 07 08 12	54752.31	13.60	294.97	0.00	22.22	11.27	1341.61
2000 07 09 12	54627.16	2.02	428.62	0.00	21.84	9.30	1183.98
2000 07 10 12	54604.77	8.36	314.97	0.00	24.18	11.92	1393.41
2000 07 11 12	54604.77	4.01	304.71	0.00	22.41	10.85	1308.02
2000 07 12 12	54458.14	1.38	415.56	0.00	23.55	11.19	1335.43
2000 07 13 12	54281.58	0.46	472.96	0.00	26.54	10.90	1312.16
2000 07 14 12	54259.18	0.00	425.48	0.00	26.91	13.71	1571.63
2000 07 15 12	54249.32	0.17	435.94	0.00	26.82	12.95	1487.57
2000 07 16 12	54029.21	0.00	397.56	0.00	24.79	12.95	1483.24
2000 07 17 12	53913.61	31.25	224.95	0.00	20.02	12.03	1402.18
2000 07 18 12	53913.61	0.00	289.55	0.00	19.72	12.30	1424.05
2000 07 19 12	53715.53	5.17	251.01	0.00	20.73	11.97	1397.27
2000 07 20 12	53568.00	0.00	469.51	0.00	22.11	7.78	1062.21
2000 07 21 12	53568.00	0.00	471.90	0.00	23.43	8.67	1133.58
2000 07 22 12	53369.96	0.12	408.70	0.00	25.23	13.06	1503.15
2000 07 23 12	53222.39	4.04	257.21	0.00	20.78	11.91	1392.68
2000 07 24 12	53222.39	0.00	438.05	0.00	24.89	11.76	1380.56
2000 07 25 12	52955.52	0.00	432.84	0.00	26.04	12.92	1480.68
2000 07 26 12	52876.81	0.00	462.52	0.00	26.93	11.95	1396.07
2000 07 27 12	52794.83	0.00	442.87	0.00	26.59	12.72	1457.70
2000 07 28 12	52531.20	3.56	205.07	0.00	20.31	13.35	1532.58
2000 07 29 12	52531.20	0.00	328.03	0.00	23.46	14.72	1677.11
2000 07 30 12	52301.22	0.00	378.55	0.00	25.63	14.89	1703.10
2000 07 31 12	52185.61	0.00	417.20	0.00	23.63	11.51	1360.52
2000 08 01 12	52103.66	0.00	461.84	0.00	24.60	10.00	1240.00
2000 08 02 12	51839.99	0.10	395.28	0.00	23.31	11.98	1398.09
2000 08 03 12	51839.99	2.48	163.05	0.00	19.45	14.77	1682.46
2000 08 04 12	51494.39	0.00	368.33	0.00	26.55	16.06	1810.23
2000 08 05 12	51494.39	0.00	455.00	0.00	26.01	11.53	1362.10
2000 08 06 12	51227.49	0.00	433.35	0.00	25.45	12.19	1415.41
2000 08 07 12	51148.78	1.03	375.22	0.00	24.98	14.28	1622.01
2000 08 08 12	50918.81	6.70	168.73	0.00	21.73	16.03	1813.11
2000 08 09 12	50803.18	0.00	397.83	0.00	27.86	15.89	1798.19
2000 08 10 12	50605.12	5.19	283.18	0.00	26.75	15.78	1782.24
2000 08 11 12	50457.57	5.27	318.78	0.00	23.93	12.40	1432.20
2000 08 12 12	50310.96	0.00	398.64	0.00	23.44	12.14	1411.59
2000 08 13 12	50112.01	0.00	339.58	0.00	22.93	13.90	1584.20
2000 08 14 12	50030.06	0.00	257.56	0.00	20.92	14.56	1661.38
2000 08 15 12	49766.41	3.81	182.16	0.00	21.60	15.71	1777.19
2000 08 16 12	49684.42	5.21	207.19	0.00	22.59	15.69	1775.17
2000 08 17 12	49420.80	3.46	290.15	0.00	22.36	12.78	1462.65
2000 08 18 12	49338.85	0.05	441.40	0.00	21.00	7.96	1076.44
2000 08 19 12	49075.20	0.00	401.49	0.00	21.65	10.45	1276.22
2000 08 20 12	48993.24	1.94	414.34	0.00	22.23	10.05	1244.28
2000 08 21 12	48729.59	9.11	314.78	0.00	20.92	8.85	1148.12
2000 08 22 12	48582.96	0.49	451.75	0.00	23.46	8.90	1151.99
2000 08 23 12	48383.98	0.00	420.32	0.00	23.65	10.87	1309.40
2000 08 24 12	48185.94	7.15	307.22	0.00	23.52	11.22	1337.97
2000 08 25 12	48038.42	0.00	406.95	0.00	24.19	11.93	1394.15
2000 08 26 12	47715.19	0.00	424.36	0.00	25.98	12.30	1423.90
2000 08 27 12	47692.79	0.00	423.71	0.00	26.76	12.59	1447.45
2000 08 28 12	47347.18	0.00	426.70	0.00	24.37	10.21	1256.56
2000 08 29 12	47347.18	0.00	443.09	0.00	23.97	8.46	1116.74
2000 08 30 12	47001.59	0.00	426.07	0.00	24.02	9.49	1199.21
2000 08 31 12	47001.59	0.00	392.75	0.00	26.00	13.05	1499.46
2000 09 01 12	46656.00	0.00	394.54	0.00	28.23	14.51	1643.90
2000 09 02 12	46656.00	8.29	303.33	0.00	27.66	12.92	1482.06
2000 09 03 12	46310.38	14.20	131.56	0.00	16.37	11.71	1376.87
2000 09 04 12	46310.38	5.21	183.11	0.00	18.03	11.37	1349.36
2000 09 05 12	45964.80	1.76	327.31	0.00	16.46	4.90	872.15
2000 09 06 12	45734.82	0.00	418.21	0.00	17.17	3.23	772.54
2000 09 07 12	45619.19	0.00	414.18	0.00	19.39	4.98	870.65
2000 09 08 12	45273.61	0.00	412.78	0.00	22.52	7.38	1030.46
2000 09 09 12	45273.61	0.00	396.29	0.00	25.07	10.32	1265.83
2000 09 10 12	44927.99	0.00	406.06	0.00	23.79	8.24	1099.23
2000 09 11 12	44927.99	0.00	401.19	0.00	22.17	6.99	999.16
2000 09 12 12	44582.40	0.00	339.10	0.00	22.09	10.30	1264.13
2000 09 13 12	44582.40	5.97	184.44	0.00	21.55	13.61	1569.17
2000 09 14 12	44236.80	10.68	279.70	0.00	21.65	7.57	1045.86
2000 09 15 12	44090.14	0.00	341.84	0.00	21.35	8.80	1144.38
2000 09 16 12	43891.18	21.18	200.23	0.00	18.55	9.60	1207.80
2000 09 17 12	43545.61	0.00	323.71	0.00	17.48	6.13	930.12
2000 09 18 12	43545.61	0.00	301.72	0.00	17.99	7.50	1040.66
2000 09 19 12	43199.99	0.00	340.81	0.00	20.88	7.99	1078.90
2000 09 20 12	43199.99	0.00	285.88	0.00	20.67	10.40	1271.67
2000 09 21 12	42854.43	3.10	145.09	0.00	20.08	13.96	1597.20
2000 09 22 12	42854.43	0.00	324.79	0.00	20.50	8.41	1112.57
2000 09 23 12	42508.81	0.00	314.20	0.00	17.46	6.14	931.01
2000 09 24 12	42361.27	9.11	190.31	0.00	16.96	8.34	1107.63
2000 09 25 12	42163.20	4.83	266.00	0.00	17.00	2.99	758.94
2000 09 26 12	41817.59	0.00	315.11	0.00	14.32	2.94	758.65
2000 09 27 12	41817.59	0.00	338.95	0.00	16.30	3.19	771.31
2000 09 28 12	41472.01	0.56	322.80	0.00	16.04	2.93	759.41
2000 09 29 12	41472.01	3.38	245.17	0.00	9.85	-1.47	549.30
2000 09 30 12	41126.39	0.00	348.50	0.00	13.80	-0.27	598.67
2000 10 01 12	41126.39	0.00	347.79	0.00	18.90	3.91	809.35
2000 10 02 12	40780.79	0.00	315.86	0.00	20.14	7.22	1017.41
2000 10 03 12	40665.18	0.00	305.13	0.00	20.68	7.99	1079.56
2000 10 04 12	40435.20	0.00	314.62	0.00	20.67	6.89	991.07
2000 10 05 12	40089.58	0.00	276.71	0.00	15.99	4.97	876.85
2000 10 06 12	40089.58	15.97	201.61	0.00	14.70	4.09	822.22
2000 10 07 12	39744.00	14.36	102.13	0.00	8.99	4.35	831.95
2000 10 08 12	39744.00	0.00	241.78	0.00	11.83	2.90	752.35
2000 10 09 12	39398.37	0.00	258.93	0.00	9.56	-0.08	607.89
2000 10 10 12	39398.37	16.22	110.02	0.00	4.61	-0.22	599.73
2000 10 11 12	39052.79	2.00	209.08	0.00	7.54	0.39	624.13
2000 10 12 12	39052.79	0.00	296.24	0.00	10.94	-0.97	572.88
2000 10 13 12	38707.20	0.00	325.73	0.00	18.68	2.36	724.39
2000 10 14 12	38684.80	0.00	313.02	0.00	20.64	5.00	873.97
2000 10 15 12	38361.60	0.00	273.65	0.00	20.27	8.03	1082.45
2000 10 16 12	38245.98	0.00	321.07	0.00	13.55	-3.02	488.64
2000 10 17 12	38016.01	0.00	258.21	0.00	8.62	-2.12	524.71
2000 10 18 12	37817.04	0.00	265.55	0.00	11.22	-0.38	593.58
2000 10 19 12	37670.39	19.69	142.56	0.00	10.63	3.17	770.49
2000 10 20 12	37406.74	8.00	183.91	0.00	12.64	2.02	705.88
2000 10 21 12	37324.79	0.00	280.38	0.00	16.41	2.14	712.91
2000 10 22 12	37061.13	0.00	299.18	0.00	19.29	1.33	669.58
2000 10 23 12	36979.17	0.00	267.66	0.00	10.45	-2.83	496.76
2000 10 24 12	36715.56	0.00	283.97	0.00	13.45	-2.52	511.50
2000 10 25 12	36633.59	0.00	269.20	0.00	17.14	2.03	707.84
2000 10 26 12	36369.95	0.00	257.21	0.00	18.09	3.71	795.59
2000 10 27 12	36288.00	0.00	258.22	0.00	19.17	4.04	819.29
2000 10 28 12	36089.04	0.12	203.78	0.00	15.25	5.05	884.27
2000 10 29 12	35942.42	5.00	148.21	0.00	7.41	-2.06	530.61
2000 10 30 12	35794.87	11.62	84.03	0.00	3.37	-1.47	550.99
2000 10 31 12	35596.81	23.87	99.59	0.00	6.51	0.67	636.98
2000 11 01 12	35481.20	5.04	97.91	0.00	6.53	0.83	640.37
2000 11 02 12	35251.21	0.00	151.27	0.00	9.09	2.31	720.23
2000 11 03 12	35228.81	0.00	216.93	0.00	12.91	1.78	690.92
2000 11 04 12	34905.61	0.00	223.36	0.00	13.57	1.52	682.14
2000 11 05 12	34905.61	0.00	142.61	0.00	7.83	1.36	673.77
2000 11 06 12	34560.00	7.44	74.93	0.00	6.79	2.37	726.52
2000 11 07 12	34560.00	0.53	103.53	0.00	8.46	3.74	798.64
2000 11 08 12	34296.34	0.00	133.89	0.00	10.46	4.23	823.33
2000 11 09 12	34214.41	0.00	135.39	0.00	11.00	4.56	845.25
2000 11 10 12	34098.79	0.00	154.37	0.00	9.44	1.89	703.92
2000 11 11 12	33868.81	0.00	114.98	0.00	8.93	3.57	788.95
2000 11 12 12	33868.81	0.00	118.85	0.00	10.75	5.20	888.10
2000 11 13 12	33605.18	0.00	109.26	0.00	8.73	3.82	804.14
2000 11 14 12	33523.20	2.87	72.08	0.00	8.37	4.36	839.10
2000 11 15 12	33444.50	21.12	104.03	0.00	9.07	2.81	744.41
2000 11 16 12	33177.60	6.70	127.69	0.00	7.84	-0.21	603.00
2000 11 17 12	33177.60	0.00	172.05	0.00	7.98	-0.25	599.18
2000 11 18 12	33030.06	0.00	201.49	0.00	8.62	-2.39	520.00
2000 11 19 12	32832.01	0.00	195.39	0.00	3.87	-6.40	376.90
2000 11 20 12	32832.01	0.00	187.38	0.00	4.01	-5.60	404.48
2000 11 21 12	32684.47	10.31	119.76	0.00	4.00	-3.46	472.78
2000 11 22 12	32486.41	2.22	142.56	0.00	2.86	-4.20	443.48
2000 11 23 12	32486.41	0.00	147.93	0.00	2.00	-4.53	440.00
2000 11 24 12	32370.79	0.00	174.14	0.00	-1.87	-9.87	283.20
2000 11 25 12	32150.67	0.00	204.84	0.00	-1.83	-12.94	226.17
2000 11 26 12	32140.80	0.00	210.62	0.00	1.41	-11.28	260.43
2000 11 27 12	32118.40	33.40	122.66	0.00	5.38	-2.35	518.79
2000 11 28 12	31941.83	6.06	84.58	0.00	4.89	0.16	612.54
2000 11 29 12	31795.20	3.63	79.61	0.00	4.56	0.12	616.31
2000 11 30 12	31795.20	3.27	89.76	0.00	4.44	-0.56	587.44
2000 12 01 12	31772.81	0.00	121.41	0.00	2.78	-2.43	520.00
2000 12 02 12	31647.67	0.00	164.24	0.00	1.03	-6.83	360.74
2000 12 03 12	31459.46	0.00	184.66	0.00	-1.67	-11.44	257.58
2000 12 04 12	31449.59	0.00	190.48	0.00	1.97	-8.93	306.86
2000 12 05 12	31449.59	0.00	200.38	0.00	5.32	-8.82	311.47
2000 12 06 12	31427.19	0.00	197.98	0.00	5.74	-8.42	320.64
2000 12 07 12	31333.97	0.00	163.71	0.00	-2.83	-11.42	259.15
2000 12 08 12	31250.63	1.99	213.49	0.00	-5.74	-18.36	145.14
2000 12 09 12	31113.88	0.00	193.25	0.00	-9.41	-19.30	130.51
2000 12 10 12	31104.01	0.00	209.11	0.00	-6.03	-18.51	143.33
2000 12 11 12	31104.01	1.00	205.00	0.00	0.79	-11.78	248.20
2000 12 12 12	31104.01	6.23	124.97	0.00	5.95	-2.88	495.77
2000 12 13 12	31104.01	11.14	166.69	0.00	6.79	-13.06	223.63
2000 12 14 12	31104.01	5.92	132.18	0.00	-2.56	-12.20	239.80
2000 12 15 12	31081.61	13.21	125.43	0.00	-0.28	-9.17	302.85
2000 12 16 12	31025.30	0.00	194.22	0.00	-0.63	-12.26	237.37
2000 12 17 12	30988.39	18.64	148.09	0.00	7.38	-5.34	413.85
2000 12 18 12	30988.39	20.64	142.74	0.00	12.40	0.01	601.19
2000 12 19 12	30988.39	0.00	196.29	0.00	3.70	-8.75	309.19
2000 12 20 12	30988.39	12.73	122.08	0.00	1.05	-7.74	341.32
2000 12 21 12	30988.39	6.72	128.90	0.00	-1.74	-11.15	263.56
2000 12 22 12	30988.39	0.00	136.93	0.00	-3.52	-10.42	274.17
2000 12 23 12	31025.30	3.65	112.56	0.00	-3.98	-11.71	252.98
2000 12 24 12	31025.30	0.00	201.32	0.00	-5.30	-17.65	156.24
2000 12 25 12	31081.61	3.07	143.23	0.00	-6.97	-16.95	161.77
2000 12 26 12	31104.01	0.00	185.16	0.00	-8.28	-18.49	144.06
2000 12 27 12	31104.01	2.48	126.89	0.00	-8.11	-15.32	184.56
2000 12 28 12	31104.01	0.00	173.47	0.00	-4.26	-13.56	217.46
2000 12 29 12	31104.01	0.00	156.77	0.00	-2.24	-10.41	276.34
2000 12 30 12	31104.01	0.00	138.41	0.00	0.19	-6.86	364.60
2000 12 31 12	31104.01	0.00	147.59	0.00	-1.02	-8.63	320.47
2001 01 01 12	31185.97	8.06	79.38	0.00	1.38	-4.92	440.00
2001 01 02 12	31302.05	0.00	181.47	0.00	-0.62	-12.91	230.98
2001 01 03 12	31370.88	0.00	156.84	0.00	-4.59	-14.29	200.00
2001 01 04 12	31449.59	1.85	142.97	0.00	-4.54	-12.92	224.85
2001 01 05 12	31449.59	1.27	187.14	0.00	-3.57	-15.67	182.94
2001 01 06 12	31449.59	4.26	132.37	0.00	-1.23	-12.12	244.49
2001 01 07 12	31596.23	14.09	99.58	0.00	-0.19	-7.65	343.73
2001 01 08 12	31716.49	0.00	203.34	0.00	-0.98	-14.28	203.04
2001 01 09 12	31795.20	0.00	187.75	0.00	-1.36	-12.79	228.34
2001 01 10 12	31795.20	0.00	186.26	0.00	-2.85	-13.96	201.83
2001 01 11 12	31805.06	0.00	201.98	0.00	-5.68	-18.12	149.48
2001 01 12 12	32025.18	0.00	212.99	0.00	-3.94	-17.46	160.00
2001 01 13 12	32140.80	0.00	207.43	0.00	-6.01	-18.63	143.26
2001 01 14 12	32140.80	0.00	215.85	0.00	-1.47	-14.99	192.08
2001 01 15 12	32287.44	0.00	231.95	0.00	0.50	-15.07	188.71
2001 01 16 12	32464.01	3.11	139.89	0.00	-3.93	-13.61	217.80
2001 01 17 12	32486.41	1.00	129.38	0.00	-1.68	-8.22	330.26
2001 01 18 12	32496.27	0.00	248.65	0.00	-3.61	-20.62	120.00
2001 01 19 12	32809.61	0.00	236.08	0.00	-3.42	-17.96	146.68
2001 01 20 12	32832.01	4.49	144.63	0.00	-1.81	-11.98	246.11
2001 01 21 12	32841.88	0.00	121.36	0.00	-7.35	-13.11	223.59
2001 01 22 12	33155.20	0.00	215.70	0.00	-7.38	-18.83	140.84
2001 01 23 12	33177.60	0.00	248.88	0.00	-3.14	-17.89	147.66
2001 01 24 12	33324.24	0.00	264.02	0.00	0.95	-15.99	180.23
2001 01 25 12	33523.20	0.00	222.84	0.00	1.89	-9.88	287.84
2001 01 26 12	33523.20	0.00	272.27	0.00	0.83	-16.50	165.93
2001 01 27 12	33753.20	0.00	258.56	0.00	0.14	-14.57	195.94
2001 01 28 12	33868.81	1.81	218.25	0.00	-0.73	-11.50	253.72
2001 01 29 12	33950.76	0.00	274.49	0.00	-1.98	-17.85	152.61
2001 01 30 12	34214.41	0.00	258.02	0.00	-2.64	-16.11	175.88
2001 01 31 12	34214.41	14.88	177.76	0.00	0.29	-11.19	260.50
2001 02 01 12	34481.29	10.43	119.61	0.00	-4.36	-10.97	266.87
2001 02 02 12	34560.00	1.98	229.30	0.00	-3.20	-13.65	212.83
2001 02 03 12	34758.06	0.00	218.84	0.00	-2.41	-11.86	248.66
2001 02 04 12	34905.61	0.00	287.29	0.00	-3.00	-17.34	159.83
2001 02 05 12	34987.57	0.00	229.32	0.00	-2.47	-12.27	241.48
2001 02 06 12	35251.21	20.21	130.86	0.00	-0.52	-7.36	351.09
2001 02 07 12	35251.21	5.04	124.12	0.00	-1.04	-6.99	360.74
2001 02 08 12	35596.81	0.00	269.00	0.00	0.32	-10.89	279.73
2001 02 09 12	35596.81	0.00	308.21	0.00	0.49	-13.56	217.54
2001 02 10 12	35942.42	6.48	243.65	0.00	5.83	-9.91	287.54
2001 02 11 12	35942.42	2.65	315.07	0.00	2.70	-17.01	161.01
2001 02 12 12	36288.00	0.00	268.57	0.00	-8.59	-18.97	136.60
2001 02 13 12	36288.00	1.39	313.05	0.00	-2.56	-15.71	181.34
2001 02 14 12	36633.59	0.00	343.27	0.00	1.72	-13.98	210.95
2001 02 15 12	36633.59	14.46	222.47	0.00	2.02	-9.55	295.48
2001 02 16 12	36979.17	0.00	346.01	0.00	0.33	-14.76	192.79
2001 02 17 12	36979.17	2.32	279.79	0.00	0.81	-11.53	255.15
2001 02 18 12	37324.79	0.00	386.90	0.00	-0.61	-19.65	122.39
2001 02 19 12	37324.79	0.00	345.03	0.00	-3.86	-17.79	149.91
2001 02 20 12	37670.39	0.12	271.02	0.00	3.32	-6.52	379.11
2001 02 21 12	37670.39	0.00	279.80	0.00	7.00	-3.15	482.44
2001 02 22 12	38016.01	0.00	403.50	0.00	-1.10	-20.41	119.81
2001 02 23 12	38016.01	1.24	288.15	0.00	-7.67	-17.43	153.70
2001 02 24 12	38361.60	0.00	282.96	0.00	-3.72	-13.13	224.24
2001 02 25 12	38361.60	0.00	367.18	0.00	-3.96	-17.53	154.80
2001 02 26 12	38707.20	10.37	280.11	0.00	2.17	-11.62	252.22
2001 02 27 12	38707.20	1.16	359.68	0.00	3.16	-10.12	280.36
2001 02 28 12	39052.79	0.00	414.01	0.00	-0.38	-16.68	165.62
2001 03 01 12	39062.66	0.00	373.98	0.00	-8.03	-20.80	117.28
2001 03 02 12	39398.37	0.00	417.60	0.00	-7.85	-23.55	93.97
2001 03 03 12	39628.39	0.00	392.62	0.00	-7.23	-21.03	113.49
2001 03 04 12	39744.00	0.00	417.82	0.00	-3.76	-19.31	136.06
2001 03 05 12	40089.58	0.00	398.71	0.00	-0.26	-14.43	199.89
2001 03 06 12	40089.58	2.98	192.06	0.00	-0.03	-6.45	380.63
2001 03 07 12	40435.20	5.33	129.41	0.00	-0.76	-5.36	413.73
2001 03 08 12	40435.20	0.00	432.20	0.00	2.53	-13.06	224.44
2001 03 09 12	40780.79	0.00	424.42	0.00	5.39	-9.84	288.42
2001 03 10 12	40780.79	13.97	190.01	0.00	2.72	-4.66	432.07
2001 03 11 12	41126.39	5.82	194.10	0.00	1.48	-5.79	397.43
2001 03 12 12	41126.39	2.98	296.39	0.00	4.00	-8.11	333.17
2001 03 13 12	41472.01	0.00	360.06	0.00	1.87	-8.39	324.52
2001 03 14 12	41817.59	13.29	224.69	0.00	3.20	-4.83	428.97
2001 03 15 12	41817.59	0.00	303.57	0.00	5.99	-2.07	529.78
2001 03 16 12	42163.20	0.00	393.35	0.00	5.18	-5.79	398.23
2001 03 17 12	42163.20	0.00	446.32	0.00	5.89	-7.47	343.88
2001 03 18 12	42508.81	0.00	433.57	0.00	7.36	-5.15	422.83
2001 03 19 12	42508.81	0.00	322.26	0.00	6.98	-1.18	562.57
2001 03 20 12	42854.43	0.00	409.11	0.00	8.83	-2.11	525.23
2001 03 21 12	42854.43	0.00	482.44	0.00	11.19	-3.44	473.85
2001 03 22 12	43199.99	0.00	408.03	0.00	9.41	-1.35	554.96
2001 03 23 12	43545.61	23.76	142.72	0.00	3.14	-1.11	567.83
2001 03 24 12	43545.61	4.32	153.68	0.00	2.08	-2.29	518.71
2001 03 25 12	43891.18	0.00	401.65	0.00	5.42	-4.09	455.00
2001 03 26 12	43891.18	0.00	491.22	0.00	3.50	-9.60	298.69
2001 03 27 12	44236.80	0.00	442.82	0.00	2.83	-7.86	336.48
2001 03 28 12	44236.80	0.00	428.45	0.00	3.09	-6.85	363.87
2001 03 29 12	44582.40	0.00	452.47	0.00	3.99	-6.67	370.12
2001 03 30 12	44582.40	0.00	436.59	0.00	5.22	-4.67	431.96
2001 03 31 12	44927.99	33.28	179.43	0.00	2.82	-1.85	536.40
2001 04 01 12	45273.61	4.45	176.04	0.00	1.00	-3.37	472.42
2001 04 02 12	45273.61	0.00	274.06	0.00	0.58	-4.40	444.68
2001 04 03 12	45619.19	0.65	280.11	0.00	1.64	-3.30	478.10
2001 04 04 12	45619.19	0.00	449.47	0.00	4.46	-4.26	446.08
2001 04 05 12	45964.80	0.00	559.72	0.00	9.11	-4.74	429.99
2001 04 06 12	45964.80	0.00	570.25	0.00	10.85	-4.17	450.37
2001 04 07 12	46310.38	0.00	547.53	0.00	9.38	-3.62	466.11
2001 04 08 12	46310.38	0.00	533.58	0.00	8.32	-3.62	464.91
2001 04 09 12	46656.00	2.00	308.40	0.00	4.26	-1.17	564.32
2001 04 10 12	46771.62	0.00	437.42	0.00	8.99	0.51	628.68
2001 04 11 12	47001.59	0.00	566.46	0.00	10.18	-3.42	472.09
2001 04 12 12	47337.32	0.00	576.67	0.00	12.01	-2.49	509.86
2001 04 13 12	47347.18	12.13	334.06	0.00	8.05	-0.66	585.56
2001 04 14 12	47692.79	3.18	290.04	0.00	6.74	-0.13	606.33
2001 04 15 12	47692.79	0.00	436.11	0.00	7.02	-1.21	562.97
2001 04 16 12	48038.42	0.00	551.39	0.00	9.78	-2.47	512.49
2001 04 17 12	48038.42	0.00	582.75	0.00	11.22	-2.88	497.72
2001 04 18 12	48383.98	0.03	556.53	0.00	11.00	-1.59	545.39
2001 04 19 12	48383.98	11.26	349.64	0.00	5.02	-3.84	460.75
2001 04 20 12	48729.59	0.00	586.40	0.00	9.74	-4.08	455.97
2001 04 21 12	48729.59	0.00	611.29	0.00	14.19	-2.39	513.96
2001 04 22 12	49075.20	0.00	585.89	0.00	17.84	2.40	724.59
2001 04 23 12	49075.20	0.00	589.40	0.00	19.87	3.45	767.44
2001 04 24 12	49420.80	0.00	587.57	0.00	18.74	2.47	723.99
2001 04 25 12	49420.80	0.00	570.98	0.00	19.21	3.95	796.67
2001 04 26 12	49766.41	0.00	574.87	0.00	13.42	-1.30	557.65
2001 04 27 12	49766.41	0.00	581.56	0.00	14.27	-1.10	566.10
2001 04 28 12	50112.01	0.00	570.83	0.00	15.54	0.57	629.11
2001 04 29 12	50112.01	0.00	549.09	0.00	11.91	-1.59	548.91
2001 04 30 12	50457.57	0.00	551.38	0.00	13.53	-0.50	590.84
2001 05 01 12	50457.57	0.00	543.16	0.00	16.96	2.66	734.74
2001 05 02 12	50803.18	0.00	587.42	0.00	21.00	2.96	718.34
2001 05 03 12	50803.18	0.00	602.22	0.00	29.44	7.16	881.15
2001 05 04 12	51148.78	0.00	575.67	0.00	29.93	9.64	1056.02
2001 05 05 12	51148.78	4.07	405.37	0.00	25.56	8.27	1101.27
2001 05 06 12	51412.40	0.12	524.91	0.00	15.11	0.27	620.93
2001 05 07 12	51494.39	0.00	555.51	0.00	17.75	0.86	635.07
2001 05 08 12	51641.94	0.00	581.82	0.00	22.51	2.71	658.32
2001 05 09 12	51839.99	0.00	583.04	0.00	23.15	2.34	630.29
2001 05 10 12	51862.39	0.00	522.72	0.00	19.55	3.00	701.33
2001 05 11 12	52185.61	0.00	527.03	0.00	22.72	5.33	803.63
2001 05 12 12	52185.61	0.00	549.28	0.00	25.86	6.16	804.17
2001 05 13 12	52449.24	0.00	432.81	0.00	20.51	7.30	977.79
2001 05 14 12	52531.20	3.66	248.47	0.00	15.18	5.81	920.66
2001 05 15 12	52646.80	3.81	237.19	0.00	13.90	4.98	876.70
2001 05 16 12	52876.81	2.13	185.68	0.00	11.24	6.08	935.04
2001 05 17 12	52876.81	0.00	355.33	0.00	13.26	3.19	769.85
2001 05 18 12	53075.77	0.00	477.04	0.00	17.64	2.40	679.95
2001 05 19 12	53222.39	9.43	303.28	0.00	17.50	5.21	887.48
2001 05 20 12	53244.79	7.65	282.19	0.00	14.62	3.53	787.13
2001 05 21 12	53558.15	0.00	459.14	0.00	20.95	5.94	884.90
2001 05 22 12	53568.00	0.00	505.77	0.00	21.35	3.47	718.30
2001 05 23 12	53590.40	0.00	495.87	0.00	22.14	4.72	785.08
2001 05 24 12	53903.74	0.00	459.03	0.00	20.20	5.00	831.57
2001 05 25 12	53913.61	0.00	508.79	0.00	21.82	3.24	697.67
2001 05 26 12	53936.00	0.00	486.03	0.00	22.76	5.25	812.71
2001 05 27 12	54112.55	0.00	491.65	0.00	23.27	5.09	795.49
2001 05 28 12	54259.18	3.95	240.04	0.00	17.07	7.29	1023.28
2001 05 29 12	54259.18	9.49	193.93	0.00	16.08	8.45	1115.98
2001 05 30 12	54374.80	0.00	392.63	0.00	19.65	7.11	1006.92
2001 05 31 12	54594.89	0.00	438.74	0.00	17.32	2.95	752.43
2001 06 01 12	54604.77	1.99	348.27	0.00	16.54	4.90	867.96
2001 06 02 12	54604.77	0.00	420.97	0.00	19.82	6.45	953.19
2001 06 03 12	54683.48	15.32	168.53	0.00	13.46	7.38	1031.11
2001 06 04 12	54803.77	10.71	164.10	0.00	13.90	8.13	1090.78
2001 06 05 12	54950.41	1.83	327.18	0.00	18.04	8.55	1123.67
2001 06 06 12	54950.41	6.29	309.42	0.00	21.75	9.45	1195.84
2001 06 07 12	54950.41	0.90	371.83	0.00	21.70	10.95	1315.61
2001 06 08 12	55029.13	0.00	486.65	0.00	23.87	8.06	1025.90
2001 06 09 12	55097.95	0.00	494.66	0.00	23.97	7.72	976.05
2001 06 10 12	55214.08	0.00	425.49	0.00	23.83	11.30	1284.94
2001 06 11 12	55296.01	0.00	477.60	0.00	23.42	8.65	1029.77
2001 06 12 12	55296.01	4.70	328.80	0.00	23.10	10.15	1251.94
2001 06 13 12	55296.01	6.10	235.99	0.00	18.71	10.59	1287.17
2001 06 14 12	55296.01	0.00	472.61	0.00	26.61	11.50	1222.39
2001 06 15 12	55296.01	0.00	463.04	0.00	29.96	14.45	1465.10
2001 06 16 12	55318.41	0.00	471.72	0.00	31.97	15.33	1526.91
2001 06 17 12	55374.72	0.00	450.47	0.00	27.61	13.02	1367.27
2001 06 18 12	55374.72	22.68	301.82	0.00	25.94	13.61	1568.84
2001 06 19 12	55411.63	0.00	464.17	0.00	26.91	11.50	1286.57
2001 06 20 12	55411.63	0.00	390.48	0.00	27.23	15.18	1710.54
2001 06 21 12	55411.63	0.00	459.62	0.00	29.67	14.11	1513.35
2001 06 22 12	55411.63	0.00	399.19	0.00	24.81	13.01	1445.42
2001 06 23 12	55411.63	2.44	223.77	0.00	18.39	12.20	1415.96
2001 06 24 12	55411.63	14.51	200.52	0.00	20.56	13.73	1578.52
2001 06 25 12	55374.72	5.60	248.31	0.00	24.54	15.71	1776.61
2001 06 26 12	55318.41	0.00	443.10	0.00	28.88	15.47	1653.62
2001 06 27 12	55296.01	0.00	443.63	0.00	30.98	17.00	1806.57
2001 06 28 12	55296.01	0.00	448.00	0.00	31.61	17.06	1806.02
2001 06 29 12	55296.01	0.00	498.54	0.00	25.40	9.12	1065.81
2001 06 30 12	55296.01	0.00	420.77	0.00	23.64	11.73	1272.99
2001 07 01 12	55296.01	0.00	456.00	0.00	30.61	16.03	1543.00
2001 07 02 12	55286.14	2.34	458.16	0.00	27.77	10.80	1121.86
2001 07 03 12	55149.38	0.00	425.71	0.00	20.66	8.51	1037.51
2001 07 04 12	55066.03	0.00	389.70	0.00	21.93	10.89	1246.46
2001 07 05 12	54972.81	6.36	265.79	0.00	22.85	12.86	1468.63
2001 07 06 12	54950.41	0.00	402.46	0.00	24.69	12.85	1400.12
2001 07 07 12	54950.41	0.00	463.96	0.00	23.60	9.07	1040.90
2001 07 08 12	54940.54	2.64	340.52	0.00	23.82	12.28	1388.22
2001 07 09 12	54752.31	6.44	219.57	0.00	20.80	13.06	1493.04
2001 07 10 12	54627.16	3.95	168.47	0.00	17.86	12.30	1424.26
2001 07 11 12	54604.77	2.17	265.37	0.00	19.03	12.05	1404.00
2001 07 12 12	54604.77	0.00	362.15	0.00	21.34	11.80	1383.92
2001 07 13 12	54458.14	1.54	403.93	0.00	22.89	10.74	1231.84
2001 07 14 12	54281.58	0.00	449.88	0.00	23.46	10.37	1151.65
2001 07 15 12	54259.18	1.24	415.54	0.00	23.84	10.99	1231.17
2001 07 16 12	54249.32	0.98	403.89	0.00	22.85	11.88	1332.04
2001 07 17 12	54029.21	3.82	299.69	0.00	21.82	13.19	1510.28
2001 07 18 12	53913.61	7.96	232.38	0.00	20.21	12.61	1449.14
2001 07 19 12	53913.61	4.55	322.15	0.00	23.20	11.47	1355.85
2001 07 20 12	53715.53	0.00	496.36	0.00	26.89	11.01	1153.35
2001 07 21 12	53568.00	0.00	493.31	0.00	28.38	12.28	1249.81
2001 07 22 12	53568.00	0.00	476.87	0.00	29.90	14.40	1442.89
2001 07 23 12	53369.96	0.00	445.80	0.00	29.82	15.81	1625.26
2001 07 24 12	53222.39	0.00	449.47	0.00	30.83	16.14	1646.48
2001 07 25 12	53222.39	0.62	435.99	0.00	31.48	17.17	1777.18
2001 07 26 12	52955.52	0.00	469.74	0.00	29.05	13.27	1363.70
2001 07 27 12	52876.81	0.00	460.76	0.00	21.28	7.24	965.32
2001 07 28 12	52794.83	0.00	473.14	0.00	23.16	8.13	1000.67
2001 07 29 12	52531.20	0.00	475.25	0.00	25.34	9.79	1102.63
2001 07 30 12	52531.20	0.00	462.44	0.00	26.59	11.43	1235.44
2001 07 31 12	52301.22	0.00	469.20	0.00	27.39	11.59	1239.86
2001 08 01 12	52185.61	0.00	464.14	0.00	27.99	12.35	1306.64
2001 08 02 12	52103.66	0.00	458.28	0.00	30.57	14.55	1496.17
2001 08 03 12	51839.99	0.00	410.31	0.00	31.75	17.91	1924.00
2001 08 04 12	51839.99	0.00	423.11	0.00	30.58	16.23	1706.69
2001 08 05 12	51494.39	0.00	406.16	0.00	27.78	14.61	1587.36
2001 08 06 12	51494.39	0.00	421.85	0.00	29.35	15.16	1609.05
2001 08 07 12	51227.49	0.00	442.67	0.00	32.63	16.36	1682.21
2001 08 08 12	51148.78	0.00	456.74	0.00	32.93	15.31	1554.13
2001 08 09 12	50918.81	0.61	417.29	0.00	30.68	14.60	1559.67
2001 08 10 12	50803.18	0.80	364.37	0.00	31.63	17.64	1960.74
2001 08 11 12	50605.12	1.09	440.08	0.00	30.03	11.80	1278.16
2001 08 12 12	50457.57	0.00	423.00	0.00	26.18	10.89	1254.38
2001 08 13 12	50310.96	0.00	368.54	0.00	25.28	12.64	1458.50
2001 08 14 12	50112.01	0.00	354.84	0.00	25.61	13.52	1543.97
2001 08 15 12	50030.06	0.00	407.07	0.00	24.86	10.37	1214.57
2001 08 16 12	49766.41	0.00	444.07	0.00	27.80	10.33	1162.05
2001 08 17 12	49684.42	0.00	394.32	0.00	27.45	12.63	1413.60
2001 08 18 12	49420.80	2.38	262.03	0.00	24.87	14.89	1701.91
2001 08 19 12	49338.85	0.00	357.06	0.00	28.27	15.19	1657.76
2001 08 20 12	49075.20	0.00	393.18	0.00	28.50	13.61	1454.61
2001 08 21 12	48993.24	3.43	168.37	0.00	21.18	13.95	1595.51
2001 08 22 12	48729.59	1.18	251.27	0.00	21.78	13.68	1569.51
2001 08 23 12	48582.96	0.21	381.34	0.00	27.49	13.45	1481.49
2001 08 24 12	48383.98	0.48	369.36	0.00	28.69	14.26	1568.30
2001 08 25 12	48185.94	0.00	448.86	0.00	24.41	6.41	895.60
2001 08 26 12	48038.42	0.00	389.38	0.00	22.53	8.41	1088.60
2001 08 27 12	47715.19	0.00	336.18	0.00	23.10	11.38	1350.29
2001 08 28 12	47692.79	2.59	240.33	0.00	23.00	14.32	1633.01
2001 08 29 12	47347.18	7.00	277.04	0.00	26.50	12.84	1467.32
2001 08 30 12	47347.18	0.00	419.36	0.00	23.78	7.63	995.10
2001 08 31 12	47001.59	0.00	373.89	0.00	23.72	10.16	1217.56
2001 09 01 12	47001.59	9.65	206.33	0.00	23.35	14.11	1608.84
2001 09 02 12	46656.00	11.26	302.88	0.00	21.50	6.40	952.10
2001 09 03 12	46656.00	0.00	399.50	0.00	20.90	6.08	914.02
2001 09 04 12	46310.38	0.00	365.28	0.00	22.17	8.93	1131.45
2001 09 05 12	46310.38	5.42	230.37	0.00	21.86	11.32	1345.25
2001 09 06 12	45964.80	0.00	405.60	0.00	20.69	5.18	849.61
2001 09 07 12	45734.82	0.00	407.06	0.00	24.30	8.03	1017.72
2001 09 08 12	45619.19	0.00	389.74	0.00	28.51	12.51	1366.52
2001 09 09 12	45273.61	0.00	390.13	0.00	31.12	14.23	1513.40
2001 09 10 12	45273.61	0.00	386.12	0.00	30.67	14.01	1500.75
2001 09 11 12	44927.99	0.14	333.90	0.00	26.78	13.93	1570.15
2001 09 12 12	44927.99	0.00	411.01	0.00	25.45	7.51	955.08
2001 09 13 12	44582.40	0.00	375.57	0.00	22.48	7.43	994.84
2001 09 14 12	44582.40	0.00	367.31	0.00	22.33	7.62	1019.17
2001 09 15 12	44236.80	0.00	371.66	0.00	17.86	3.35	766.18
2001 09 16 12	44090.14	0.00	385.33	0.00	19.76	3.85	784.61
2001 09 17 12	43891.18	0.00	384.68	0.00	22.93	6.36	859.03
2001 09 18 12	43545.61	0.00	387.43	0.00	24.49	7.07	890.41
2001 09 19 12	43545.61	0.00	381.54	0.00	23.88	6.72	880.61
2001 09 20 12	43199.99	0.00	333.21	0.00	19.86	6.16	913.58
2001 09 21 12	43199.99	0.00	250.02	0.00	18.70	9.02	1161.65
2001 09 22 12	42854.43	17.46	112.73	0.00	19.22	13.63	1564.12
2001 09 23 12	42854.43	7.99	171.32	0.00	21.86	12.99	1490.79
2001 09 24 12	42508.81	0.00	314.49	0.00	23.20	10.03	1197.34
2001 09 25 12	42361.27	11.92	216.01	0.00	21.51	9.81	1224.86
2001 09 26 12	42163.20	27.13	150.64	0.00	19.26	11.69	1375.00
2001 09 27 12	41817.59	6.93	244.55	0.00	21.61	7.83	1066.83
2001 09 28 12	41817.59	3.83	218.80	0.00	17.50	7.00	999.99
2001 09 29 12	41472.01	0.00	283.50	0.00	14.69	3.54	788.27
2001 09 30 12	41472.01	0.00	325.21	0.00	15.11	1.30	673.23
2001 10 01 12	41126.39	0.00	343.33	0.00	17.37	1.50	682.27
2001 10 02 12	41126.39	0.00	342.18	0.00	20.15	3.64	791.64
2001 10 03 12	40780.79	0.00	337.24	0.00	21.99	5.29	888.82
2001 10 04 12	40665.18	0.00	312.40	0.00	22.65	7.61	1048.50
2001 10 05 12	40435.20	0.00	293.16	0.00	24.20	10.00	1240.08
2001 10 06 12	40089.58	0.00	280.22	0.00	22.38	9.22	1177.71
2001 10 07 12	40089.58	2.09	321.57	0.00	18.50	1.76	694.69
2001 10 08 12	39744.00	0.33	273.59	0.00	13.03	0.94	653.63
2001 10 09 12	39744.00	0.00	290.03	0.00	11.32	-1.80	540.72
2001 10 10 12	39398.37	0.00	289.58	0.00	14.62	1.15	664.42
2001 10 11 12	39398.37	0.00	287.50	0.00	19.63	5.51	903.19
2001 10 12 12	39052.79	0.00	296.30	0.00	21.89	6.47	968.14
2001 10 13 12	39052.79	0.00	293.02	0.00	21.78	6.44	955.07
2001 10 14 12	38707.20	0.00	244.87	0.00	17.19	5.80	921.79
2001 10 15 12	38684.80	1.60	179.69	0.00	14.94	7.14	1011.31
2001 10 16 12	38361.60	2.86	199.57	0.00	15.87	4.19	827.15
2001 10 17 12	38245.98	24.02	181.12	0.00	17.04	5.71	915.05
2001 10 18 12	38016.01	0.00	250.16	0.00	14.55	2.89	751.18
2001 10 19 12	37817.04	0.00	284.04	0.00	11.73	-2.49	508.73
2001 10 20 12	37670.39	0.00	260.21	0.00	13.26	0.68	642.59
2001 10 21 12	37406.74	0.00	261.77	0.00	15.95	2.67	743.60
2001 10 22 12	37324.79	0.00	265.16	0.00	18.78	4.25	831.82
2001 10 23 12	37061.13	0.00	283.11	0.00	15.06	-1.38	556.23
2001 10 24 12	36979.17	3.75	189.00	0.00	14.73	1.10	665.11
2001 10 25 12	36715.56	2.29	148.59	0.00	17.55	9.42	1193.95
2001 10 26 12	36633.59	1.94	202.97	0.00	15.00	3.27	774.07
2001 10 27 12	36369.95	1.82	219.39	0.00	13.18	0.08	614.93
2001 10 28 12	36288.00	0.00	233.92	0.00	11.41	-1.38	551.74
2001 10 29 12	36089.04	0.00	234.63	0.00	9.01	-3.98	454.67
2001 10 30 12	35942.42	0.00	213.91	0.00	9.97	-1.60	546.59
2001 10 31 12	35794.87	0.00	218.46	0.00	7.42	-4.43	444.42
2001 11 01 12	35596.81	10.92	138.81	0.00	8.05	-1.51	551.01
2001 11 02 12	35481.20	1.43	152.48	0.00	11.93	4.13	824.60
2001 11 03 12	35251.21	1.13	140.04	0.00	16.89	9.61	1208.48
2001 11 04 12	35228.81	0.00	211.13	0.00	16.24	4.13	823.03
2001 11 05 12	34905.61	0.00	146.94	0.00	11.03	3.62	790.78
2001 11 06 12	34905.61	4.97	93.20	0.00	9.28	3.28	779.13
2001 11 07 12	34560.00	2.43	117.75	0.00	9.57	2.91	753.30
2001 11 08 12	34560.00	0.00	228.88	0.00	11.76	-2.05	530.38
2001 11 09 12	34296.34	3.90	137.02	0.00	9.33	-0.30	596.08
2001 11 10 12	34214.41	5.19	146.56	0.00	7.93	-2.65	503.47
2001 11 11 12	34098.79	4.18	118.16	0.00	6.21	-1.67	543.25
2001 11 12 12	33868.81	0.00	138.98	0.00	3.32	-3.33	474.04
2001 11 13 12	33868.81	0.00	186.45	0.00	2.53	-7.15	354.03
2001 11 14 12	33605.18	0.00	189.40	0.00	4.62	-5.62	403.72
2001 11 15 12	33523.20	0.00	188.05	0.00	10.14	-0.48	590.32
2001 11 16 12	33444.50	0.00	202.37	0.00	13.29	0.79	642.39
2001 11 17 12	33177.60	0.00	228.50	0.00	12.49	-4.73	429.86
2001 11 18 12	33177.60	0.00	163.16	0.00	5.26	-3.61	468.01
2001 11 19 12	33030.06	0.00	189.79	0.00	10.81	-0.76	580.86
2001 11 20 12	32832.01	0.00	197.25	0.00	13.56	0.51	634.49
2001 11 21 12	32832.01	4.59	152.59	0.00	9.47	-4.13	452.52
2001 11 22 12	32684.47	0.00	163.39	0.00	3.92	-5.20	418.36
2001 11 23 12	32486.41	0.00	171.63	0.00	6.72	-3.27	481.89
2001 11 24 12	32486.41	0.00	152.41	0.00	8.30	-0.39	595.76
2001 11 25 12	32370.79	0.00	93.30	0.00	10.19	5.22	885.00
2001 11 26 12	32150.67	2.98	54.80	0.00	10.78	7.24	1019.24
2001 11 27 12	32140.80	4.80	98.26	0.00	10.51	3.40	780.01
2001 11 28 12	32118.40	1.95	128.74	0.00	6.57	-0.15	603.60
2001 11 29 12	31941.83	3.69	80.40	0.00	1.89	-3.41	475.36
2001 11 30 12	31795.20	15.37	117.35	0.00	5.74	-2.84	497.95
2001 12 01 12	31795.20	4.04	135.37	0.00	12.75	1.01	657.81
2001 12 02 12	31772.81	0.00	173.73	0.00	12.83	1.68	689.01
2001 12 03 12	31647.67	0.00	162.37	0.00	8.37	-1.39	551.85
2001 12 04 12	31459.46	0.00	164.81	0.00	9.14	-0.99	570.66
2001 12 05 12	31449.59	1.00	145.77	0.00	9.22	0.71	635.84
2001 12 06 12	31449.59	0.00	129.15	0.00	11.74	4.25	833.69
2001 12 07 12	31427.19	0.00	153.34	0.00	13.38	3.61	791.30
2001 12 08 12	31333.97	0.00	180.90	0.00	8.84	-4.01	448.40
2001 12 09 12	31250.63	0.00	123.40	0.00	1.90	-4.94	426.94
2001 12 10 12	31113.88	0.00	167.46	0.00	2.12	-8.57	316.41
2001 12 11 12	31104.01	0.00	170.76	0.00	5.79	-5.78	400.53
2001 12 12 12	31104.01	0.00	173.43	0.00	7.13	-5.20	421.79
2001 12 13 12	31104.01	0.00	144.27	0.00	4.55	-4.37	443.25
2001 12 14 12	31104.01	5.28	80.00	0.00	7.36	1.20	665.82
2001 12 15 12	31104.01	5.65	122.12	0.00	8.01	-3.04	488.45
2001 12 16 12	31081.61	0.00	149.19	0.00	-0.11	-9.20	301.30
2001 12 17 12	31025.30	0.00	142.50	0.00	-1.00	-9.26	299.37
2001 12 18 12	30988.39	10.67	94.20	0.00	-0.64	-6.88	363.27
2001 12 19 12	30988.39	5.04	91.65	0.00	0.03	-5.89	400.00
2001 12 20 12	30988.39	0.00	173.00	0.00	2.12	-7.26	353.44
2001 12 21 12	30988.39	7.24	93.54	0.00	1.10	-4.75	433.12
2001 12 22 12	30988.39	0.00	132.72	0.00	-1.49	-7.68	341.03
2001 12 23 12	30988.39	0.00	187.48	0.00	-1.28	-11.65	251.11
2001 12 24 12	31025.30	0.00	194.36	0.00	2.48	-9.01	307.72
2001 12 25 12	31025.30	23.12	119.88	0.00	5.58	-2.74	502.31
2001 12 26 12	31081.61	0.00	178.15	0.00	3.56	-6.37	379.72
2001 12 27 12	31104.01	6.99	94.76	0.00	0.03	-6.01	391.83
2001 12 28 12	31104.01	0.00	178.33	0.00	-1.75	-11.39	258.48
2001 12 29 12	31104.01	0.00	177.87	0.00	-1.26	-10.97	266.76
2001 12 30 12	31104.01	0.00	190.29	0.00	-0.01	-11.11	264.61
2001 12 31 12	31104.01	0.00	171.17	0.00	-1.02	-9.99	282.34
2002 01 01 12	31185.97	0.00	210.92	0.00	-0.60	-14.10	206.17
2002 01 02 12	31302.05	0.00	189.28	0.00	-2.76	-13.47	219.07
2002 01 03 12	31370.88	0.00	200.23	0.00	0.17	-11.64	252.66
2002 01 04 12	31449.59	0.00	223.83	0.00	0.64	-14.53	200.00
2002 01 05 12	31449.59	0.00	184.48	0.00	-4.34	-14.28	205.07
2002 01 06 12	31449.59	0.00	192.26	0.00	2.15	-8.61	318.52
2002 01 07 12	31596.23	6.25	87.61	0.00	2.59	-3.10	484.70
2002 01 08 12	31716.49	2.79	172.95	0.00	-0.09	-12.43	237.20
2002 01 09 12	31795.20	0.00	188.53	0.00	-1.53	-11.43	258.70
2002 01 10 12	31795.20	2.41	118.92	0.00	1.13	-5.15	416.93
2002 01 11 12	31805.06	0.00	141.35	0.00	3.01	-3.78	464.20
2002 01 12 12	32025.18	3.21	140.07	0.00	2.87	-5.65	403.91
2002 01 13 12	32140.80	2.99	179.08	0.00	2.07	-7.20	348.33
2002 01 14 12	32140.80	24.03	154.05	0.00	3.02	-7.44	360.00
2002 01 15 12	32287.44	5.72	126.57	0.00	-2.73	-9.92	289.72
2002 01 16 12	32464.01	7.70	129.83	0.00	-1.92	-9.70	291.25
2002 01 17 12	32486.41	0.24	253.55	0.00	-2.40	-16.96	161.36
2002 01 18 12	32496.27	2.92	175.35	0.00	-2.88	-14.03	208.85
2002 01 19 12	32809.61	0.00	269.71	0.00	-1.75	-18.28	148.08
2002 01 20 12	32832.01	1.70	242.52	0.00	-2.82	-15.05	188.95
2002 01 21 12	32841.88	0.00	227.76	0.00	0.10	-10.57	270.11
2002 01 22 12	33155.20	9.07	145.98	0.00	0.77	-7.54	346.90
2002 01 23 12	33177.60	0.00	281.16	0.00	2.92	-13.45	218.68
2002 01 24 12	33324.24	6.93	174.35	0.00	4.95	-4.83	427.35
2002 01 25 12	33523.20	17.48	169.60	0.00	2.73	-6.92	360.99
2002 01 26 12	33523.20	0.00	244.64	0.00	1.17	-9.52	299.21
2002 01 27 12	33753.20	0.00	270.12	0.00	3.31	-9.38	300.78
2002 01 28 12	33868.81	0.00	181.50	0.00	-0.24	-7.12	358.28
2002 01 29 12	33950.76	0.00	189.67	0.00	2.34	-4.86	432.23
2002 01 30 12	34214.41	4.00	198.93	0.00	0.84	-10.42	280.00
2002 01 31 12	34214.41	4.20	127.54	0.00	-8.13	-13.99	206.32
2002 02 01 12	34481.29	7.08	133.14	0.00	-7.65	-13.60	217.75
2002 02 02 12	34560.00	17.37	208.85	0.00	-3.10	-13.69	207.18
2002 02 03 12	34758.06	0.00	329.94	0.00	-6.24	-21.24	120.00
2002 02 04 12	34905.61	4.26	223.47	0.00	-2.00	-13.26	222.86
2002 02 05 12	34987.57	2.59	282.30	0.00	-1.83	-14.37	200.02
2002 02 06 12	35251.21	0.00	307.62	0.00	-5.10	-16.87	162.92
2002 02 07 12	35251.21	0.00	290.60	0.00	-4.00	-14.41	200.92
2002 02 08 12	35596.81	0.72	244.66	0.00	-3.50	-12.02	246.18
2002 02 09 12	35596.81	0.00	349.27	0.00	0.68	-14.34	201.12
2002 02 10 12	35942.42	0.00	373.65	0.00	-1.51	-20.51	120.00
2002 02 11 12	35942.42	35.35	289.21	0.00	5.82	-14.35	201.56
2002 02 12 12	36288.00	0.64	391.06	0.00	-0.78	-22.16	108.68
2002 02 13 12	36288.00	0.00	389.30	0.00	0.33	-18.70	142.14
2002 02 14 12	36633.59	0.00	385.53	0.00	-2.08	-19.97	124.93
2002 02 15 12	36633.59	0.00	313.67	0.00	0.38	-11.25	259.38
2002 02 16 12	36979.17	0.00	286.16	0.00	6.38	-3.79	464.04
2002 02 17 12	36979.17	0.00	353.84	0.00	9.00	-5.15	422.98
2002 02 18 12	37324.79	0.00	346.44	0.00	3.99	-8.94	306.59
2002 02 19 12	37324.79	0.00	395.03	0.00	1.05	-15.51	184.41
2002 02 20 12	37670.39	0.00	370.84	0.00	4.99	-9.40	300.99
2002 02 21 12	37670.39	8.77	218.98	0.00	5.16	-4.67	432.44
2002 02 22 12	38016.01	11.12	173.02	0.00	5.32	-1.84	532.54
2002 02 23 12	38016.01	0.39	341.59	0.00	4.60	-7.04	360.00
2002 02 24 12	38361.60	0.00	387.70	0.00	2.82	-11.37	259.61
2002 02 25 12	38361.60	0.00	304.50	0.00	2.73	-6.92	362.50
2002 02 26 12	38707.20	0.00	201.19	0.00	3.75	-2.06	525.90
2002 02 27 12	38707.20	9.33	170.67	0.00	8.09	1.37	670.23
2002 02 28 12	39052.79	29.77	276.47	0.00	7.88	-4.41	443.51
2002 03 01 12	39062.66	0.00	342.84	0.00	0.03	-10.50	272.97
2002 03 02 12	39398.37	0.00	377.93	0.00	3.65	-8.68	318.15
2002 03 03 12	39628.39	9.33	269.55	0.00	6.05	-5.41	409.74
2002 03 04 12	39744.00	15.36	267.11	0.00	8.00	-3.26	479.83
2002 03 05 12	40089.58	0.00	426.68	0.00	2.03	-12.49	230.80
2002 03 06 12	40089.58	0.00	344.26	0.00	-2.16	-12.24	238.36
2002 03 07 12	40435.20	0.00	328.49	0.00	2.22	-7.20	357.10
2002 03 08 12	40435.20	0.00	299.07	0.00	3.01	-5.24	422.15
2002 03 09 12	40780.79	0.00	310.96	0.00	3.41	-5.08	420.64
2002 03 10 12	40780.79	9.73	254.13	0.00	9.79	0.13	615.75
2002 03 11 12	41126.39	9.16	354.21	0.00	6.28	-9.39	298.38
2002 03 12 12	41126.39	0.00	392.54	0.00	1.49	-9.30	301.73
2002 03 13 12	41472.01	0.02	347.25	0.00	3.88	-4.98	424.35
2002 03 14 12	41817.59	1.00	360.46	0.00	5.70	-3.30	476.07
2002 03 15 12	41817.59	0.00	505.84	0.00	10.65	-5.53	407.43
2002 03 16 12	42163.20	2.74	199.65	0.00	-1.32	-6.65	363.81
2002 03 17 12	42163.20	0.00	415.34	0.00	0.22	-9.62	295.43
2002 03 18 12	42508.81	0.00	465.37	0.00	2.90	-8.97	309.47
2002 03 19 12	42508.81	0.00	429.98	0.00	3.00	-7.14	351.05
2002 03 20 12	42854.43	0.00	489.29	0.00	4.35	-8.16	327.97
2002 03 21 12	42854.43	19.00	304.62	0.00	3.91	-5.06	426.44
2002 03 22 12	43199.99	2.77	451.50	0.00	4.68	-11.09	266.51
2002 03 23 12	43545.61	0.00	407.36	0.00	-4.45	-13.04	223.64
2002 03 24 12	43545.61	0.00	452.32	0.00	1.74	-8.37	322.91
2002 03 25 12	43891.18	0.00	524.91	0.00	3.02	-10.15	281.38
2002 03 26 12	43891.18	0.00	512.34	0.00	3.37	-8.90	315.09
2002 03 27 12	44236.80	36.14	387.12	0.00	6.28	-6.02	393.29
2002 03 28 12	44236.80	14.56	296.97	0.00	6.43	-1.81	535.46
2002 03 29 12	44582.40	0.00	471.79	0.00	6.39	-4.08	452.29
2002 03 30 12	44582.40	0.03	489.41	0.00	9.66	-1.58	547.32
2002 03 31 12	44927.99	15.45	331.57	0.00	8.50	-0.93	565.80
2002 04 01 12	45273.61	10.15	390.56	0.00	14.02	1.45	677.29
2002 04 02 12	45273.61	17.31	250.17	0.00	7.60	1.12	664.26
2002 04 03 12	45619.19	9.25	326.58	0.00	10.05	1.07	659.89
2002 04 04 12	45619.19	12.03	394.15	0.00	9.91	-1.92	526.28
2002 04 05 12	45964.80	0.00	540.99	0.00	7.93	-4.34	446.01
2002 04 06 12	45964.80	0.00	482.32	0.00	6.43	-3.54	465.51
2002 04 07 12	46310.38	0.00	486.28	0.00	4.26	-5.70	402.07
2002 04 08 12	46310.38	0.00	476.42	0.00	6.53	-3.19	485.31
2002 04 09 12	46656.00	1.26	387.42	0.00	9.92	2.43	728.58
2002 04 10 12	46771.62	3.95	296.84	0.00	12.09	4.52	848.26
2002 04 11 12	47001.59	0.00	613.97	0.00	12.58	-3.51	473.32
2002 04 12 12	47337.32	0.00	557.04	0.00	12.43	-0.32	598.32
2002 04 13 12	47347.18	0.00	441.65	0.00	14.65	5.69	914.40
2002 04 14 12	47692.79	26.06	356.70	0.00	16.94	7.03	1002.08
2002 04 15 12	47692.79	9.59	321.51	0.00	10.26	2.00	704.42
2002 04 16 12	48038.42	11.10	228.99	0.00	7.61	2.18	715.26
2002 04 17 12	48038.42	5.67	432.82	0.00	18.92	4.83	866.01
2002 04 18 12	48383.98	9.71	418.15	0.00	15.49	2.81	745.60
2002 04 19 12	48383.98	0.00	267.73	0.00	7.05	2.41	727.99
2002 04 20 12	48729.59	1.04	401.64	0.00	9.84	2.50	720.00
2002 04 21 12	48729.59	0.00	612.01	0.00	11.53	-3.00	480.04
2002 04 22 12	49075.20	0.00	564.47	0.00	6.77	-5.00	429.01
2002 04 23 12	49075.20	0.00	530.16	0.00	8.26	-2.34	516.57
2002 04 24 12	49420.80	0.11	519.32	0.00	9.38	-0.83	579.21
2002 04 25 12	49420.80	0.00	613.63	0.00	12.12	-2.34	516.86
2002 04 26 12	49766.41	9.06	437.69	0.00	11.89	-0.89	572.62
2002 04 27 12	49766.41	9.19	384.86	0.00	7.80	-1.57	544.85
2002 04 28 12	50112.01	0.00	564.57	0.00	9.07	-2.68	503.50
2002 04 29 12	50112.01	10.74	294.08	0.00	5.67	-1.19	562.57
2002 04 30 12	50457.57	7.96	237.66	0.00	4.53	-0.75	579.36
2002 05 01 12	50457.57	2.45	500.46	0.00	10.21	-1.00	571.92
2002 05 02 12	50803.18	4.67	430.11	0.00	10.87	-1.08	566.94
2002 05 03 12	50803.18	8.49	329.34	0.00	9.46	1.54	680.78
2002 05 04 12	51148.78	2.09	483.30	0.00	10.78	1.52	680.69
2002 05 05 12	51148.78	0.00	633.27	0.00	16.55	0.77	641.07
2002 05 06 12	51412.40	0.00	630.92	0.00	18.81	2.49	733.51
2002 05 07 12	51494.39	0.00	553.24	0.00	20.46	8.01	1080.41
2002 05 08 12	51641.94	0.00	560.18	0.00	17.83	5.32	902.12
2002 05 09 12	51839.99	0.00	583.76	0.00	16.25	2.72	748.35
2002 05 10 12	51862.39	9.29	389.27	0.00	16.87	5.68	914.49
2002 05 11 12	52185.61	0.00	600.35	0.00	21.03	5.64	911.77
2002 05 12 12	52185.61	0.00	559.43	0.00	13.99	1.60	686.72
2002 05 13 12	52449.24	0.00	515.95	0.00	13.40	2.53	738.46
2002 05 14 12	52531.20	18.38	357.56	0.00	12.16	2.51	736.11
2002 05 15 12	52646.80	9.00	239.30	0.00	8.47	2.66	744.79
2002 05 16 12	52876.81	2.49	392.01	0.00	11.04	2.41	729.13
2002 05 17 12	52876.81	2.98	378.29	0.00	16.53	5.85	922.05
2002 05 18 12	53075.77	4.53	442.19	0.00	17.45	3.00	759.32
2002 05 19 12	53222.39	9.09	283.05	0.00	9.16	1.99	706.16
2002 05 20 12	53244.79	0.00	591.23	0.00	14.15	-0.44	591.53
2002 05 21 12	53558.15	0.00	561.26	0.00	14.75	1.54	683.21
2002 05 22 12	53568.00	0.00	589.25	0.00	17.33	2.12	712.36
2002 05 23 12	53590.40	0.00	609.66	0.00	20.80	3.03	761.40
2002 05 24 12	53903.74	0.00	600.82	0.00	23.46	5.27	898.46
2002 05 25 12	53913.61	0.00	615.14	0.00	23.13	3.32	779.99
2002 05 26 12	53936.00	0.00	551.54	0.00	17.47	3.17	773.49
2002 05 27 12	54112.55	0.00	458.22	0.00	15.11	4.55	852.11
2002 05 28 12	54259.18	0.00	575.92	0.00	23.49	6.37	949.98
2002 05 29 12	54259.18	0.00	572.97	0.00	23.95	6.51	961.15
2002 05 30 12	54374.80	0.00	402.34	0.00	20.12	10.27	1261.25
2002 05 31 12	54594.89	3.33	197.57	0.00	18.10	12.06	1404.98
2002 06 01 12	54604.77	1.79	475.80	0.00	24.09	11.02	1321.72
2002 06 02 12	54604.77	2.31	458.49	0.00	23.74	8.81	1144.97
2002 06 03 12	54683.48	0.85	473.56	0.00	17.84	3.41	783.12
2002 06 04 12	54803.77	0.00	511.40	0.00	16.24	1.68	689.01
2002 06 05 12	54950.41	3.75	307.34	0.00	17.60	6.98	1007.46
2002 06 06 12	54950.41	11.13	207.31	0.00	15.31	8.71	1136.79
2002 06 07 12	54950.41	3.53	323.04	0.00	17.73	8.41	1112.58
2002 06 08 12	55029.13	0.00	522.49	0.00	18.51	2.51	733.93
2002 06 09 12	55097.95	0.00	437.31	0.00	21.25	9.04	1163.20
2002 06 10 12	55214.08	3.18	345.58	0.00	23.41	9.87	1229.93
2002 06 11 12	55296.01	4.66	338.11	0.00	22.30	9.30	1184.28
2002 06 12 12	55296.01	12.94	144.26	0.00	11.92	7.49	1039.06
2002 06 13 12	55296.01	7.58	269.92	0.00	13.81	4.89	872.33
2002 06 14 12	55296.01	0.00	462.70	0.00	20.03	6.50	971.69
2002 06 15 12	55296.01	1.19	382.99	0.00	17.97	7.30	1023.73
2002 06 16 12	55318.41	13.86	214.26	0.00	13.76	6.72	979.46
2002 06 17 12	55374.72	0.01	264.83	0.00	13.60	7.25	1021.20
2002 06 18 12	55374.72	0.83	318.53	0.00	16.83	8.54	1123.23
2002 06 19 12	55411.63	0.00	442.00	0.00	21.55	9.00	1160.03
2002 06 20 12	55411.63	0.00	495.25	0.00	23.68	7.97	1077.75
2002 06 21 12	55411.63	0.00	480.79	0.00	26.60	11.15	1332.08
2002 06 22 12	55411.63	0.00	466.22	0.00	27.38	12.69	1455.24
2002 06 23 12	55411.63	0.00	463.31	0.00	23.69	9.92	1233.64
2002 06 24 12	55411.63	3.94	339.06	0.00	23.88	11.57	1365.29
2002 06 25 12	55374.72	0.00	500.03	0.00	25.26	9.16	1172.84
2002 06 26 12	55318.41	0.76	447.88	0.00	25.98	12.12	1414.59
2002 06 27 12	55296.01	8.10	321.45	0.00	27.31	14.67	1667.24
2002 06 28 12	55296.01	2.18	394.88	0.00	28.44	15.77	1781.60
2002 06 29 12	55296.01	0.00	467.02	0.00	27.73	13.12	1509.05
2002 06 30 12	55296.01	0.00	464.41	0.00	26.49	12.02	1401.80
2002 07 01 12	55296.01	0.00	412.59	0.00	25.14	13.35	1533.55
2002 07 02 12	55286.14	13.77	283.00	0.00	23.60	13.41	1539.99
2002 07 03 12	55149.38	8.67	323.21	0.00	30.47	17.02	1926.03
2002 07 04 12	55066.03	6.76	342.17	0.00	34.18	18.25	2100.33
2002 07 05 12	54972.81	12.03	345.34	0.00	31.24	15.81	1787.59
2002 07 06 12	54950.41	0.23	437.38	0.00	25.51	12.04	1403.48
2002 07 07 12	54950.41	1.01	316.56	0.00	21.41	13.11	1505.84
2002 07 08 12	54940.54	4.02	311.04	0.00	24.54	12.61	1449.37
2002 07 09 12	54752.31	0.05	395.44	0.00	27.46	15.90	1804.39
2002 07 10 12	54627.16	0.00	443.25	0.00	27.79	14.04	1602.60
2002 07 11 12	54604.77	0.00	487.37	0.00	22.52	7.21	1018.53
2002 07 12 12	54604.77	0.00	436.40	0.00	21.48	8.73	1138.52
2002 07 13 12	54458.14	0.00	458.08	0.00	25.79	11.08	1326.75
2002 07 14 12	54281.58	0.00	450.28	0.00	27.02	12.52	1442.74
2002 07 15 12	54259.18	0.97	394.32	0.00	26.83	14.08	1606.70
2002 07 16 12	54249.32	7.17	223.79	0.00	21.43	13.29	1527.47
2002 07 17 12	54029.21	3.97	276.59	0.00	22.60	11.96	1397.02
2002 07 18 12	53913.61	0.00	383.85	0.00	25.03	13.48	1544.94
2002 07 19 12	53913.61	0.82	458.78	0.00	25.98	9.82	1225.54
2002 07 20 12	53715.53	3.80	234.10	0.00	21.22	12.57	1450.56
2002 07 21 12	53568.00	0.00	423.43	0.00	22.30	9.55	1204.01
2002 07 22 12	53568.00	0.00	363.41	0.00	24.79	14.17	1619.02
2002 07 23 12	53369.96	0.00	367.08	0.00	27.30	16.29	1844.94
2002 07 24 12	53222.39	1.26	487.61	0.00	29.20	8.80	1126.77
2002 07 25 12	53222.39	0.00	482.89	0.00	22.99	6.77	981.46
2002 07 26 12	52955.52	0.00	448.68	0.00	23.23	8.94	1154.91
2002 07 27 12	52876.81	0.00	412.03	0.00	22.15	9.71	1216.78
2002 07 28 12	52794.83	3.64	233.74	0.00	19.54	11.95	1396.52
2002 07 29 12	52531.20	8.00	250.61	0.00	24.01	14.48	1654.52
2002 07 30 12	52531.20	10.43	267.70	0.00	25.63	15.20	1736.03
2002 07 31 12	52301.22	0.00	395.23	0.00	28.38	15.98	1811.52
2002 08 01 12	52185.61	0.00	453.05	0.00	29.91	14.00	1588.80
2002 08 02 12	52103.66	0.00	385.83	0.00	25.43	13.73	1575.06
2002 08 03 12	51839.99	0.00	346.74	0.00	25.74	15.60	1767.54
2002 08 04 12	51839.99	0.00	409.30	0.00	27.47	14.55	1659.53
2002 08 05 12	51494.39	0.00	378.54	0.00	27.93	16.30	1847.21
2002 08 06 12	51494.39	4.35	326.77	0.00	27.83	14.28	1627.84
2002 08 07 12	51227.49	7.46	289.60	0.00	23.63	12.10	1408.03
2002 08 08 12	51148.78	0.00	430.62	0.00	24.10	10.39	1271.38
2002 08 09 12	50918.81	0.00	449.73	0.00	25.60	10.45	1269.20
2002 08 10 12	50803.18	0.00	432.10	0.00	26.62	12.25	1420.31
2002 08 11 12	50605.12	0.00	408.10	0.00	27.31	13.98	1595.93
2002 08 12 12	50457.57	0.00	426.98	0.00	30.03	15.04	1709.07
2002 08 13 12	50310.96	0.00	448.03	0.00	31.50	14.69	1627.96
2002 08 14 12	50112.01	0.00	438.92	0.00	32.50	15.89	1739.98
2002 08 15 12	50030.06	0.00	387.97	0.00	32.24	18.35	2094.75
2002 08 16 12	49766.41	0.00	359.46	0.00	30.65	18.28	2102.73
2002 08 17 12	49684.42	0.00	372.38	0.00	30.27	17.36	1960.30
2002 08 18 12	49420.80	0.00	465.81	0.00	31.92	12.72	1350.47
2002 08 19 12	49338.85	0.00	401.33	0.00	31.21	16.31	1795.37
2002 08 20 12	49075.20	0.42	370.64	0.00	28.32	15.44	1745.01
2002 08 21 12	48993.24	0.22	452.54	0.00	27.00	9.32	1121.38
2002 08 22 12	48729.59	0.00	384.94	0.00	25.47	11.95	1394.21
2002 08 23 12	48582.96	2.77	292.65	0.00	23.09	11.07	1325.59
2002 08 24 12	48383.98	0.00	420.09	0.00	21.98	7.19	1009.61
2002 08 25 12	48185.94	1.85	310.24	0.00	21.11	10.60	1288.02
2002 08 26 12	48038.42	8.47	294.56	0.00	24.27	11.34	1346.96
2002 08 27 12	47715.19	0.00	380.63	0.00	25.59	12.05	1403.78
2002 08 28 12	47692.79	0.00	405.86	0.00	23.82	8.93	1153.47
2002 08 29 12	47347.18	0.00	356.89	0.00	22.60	10.25	1259.77
2002 08 30 12	47347.18	5.95	263.72	0.00	23.37	11.11	1328.81
2002 08 31 12	47001.59	0.00	431.23	0.00	23.52	6.45	955.79
2002 09 01 12	47001.59	0.00	436.21	0.00	21.50	4.04	816.40
2002 09 02 12	46656.00	0.00	379.46	0.00	21.76	7.73	1058.14
2002 09 03 12	46656.00	0.97	267.38	0.00	20.68	11.40	1351.87
2002 09 04 12	46310.38	6.95	149.97	0.00	20.25	13.72	1567.14
2002 09 05 12	46310.38	0.98	269.93	0.00	20.98	11.92	1393.22
2002 09 06 12	45964.80	0.00	389.43	0.00	22.78	7.80	1064.28
2002 09 07 12	45734.82	0.00	397.39	0.00	24.76	8.69	1135.13
2002 09 08 12	45619.19	0.00	398.08	0.00	27.70	10.76	1300.17
2002 09 09 12	45273.61	0.00	373.56	0.00	29.82	13.91	1587.08
2002 09 10 12	45273.61	0.00	403.56	0.00	33.45	13.79	1547.81
2002 09 11 12	44927.99	0.00	400.62	0.00	31.53	12.46	1401.63
2002 09 12 12	44927.99	18.37	272.42	0.00	20.80	6.46	956.60
2002 09 13 12	44582.40	0.00	365.08	0.00	19.37	5.00	878.51
2002 09 14 12	44582.40	0.00	363.42	0.00	21.50	6.78	991.46
2002 09 15 12	44236.80	2.95	252.21	0.00	19.96	9.88	1230.16
2002 09 16 12	44090.14	22.18	167.29	0.00	18.92	11.00	1319.65
2002 09 17 12	43891.18	15.84	180.62	0.00	16.60	8.65	1131.80
2002 09 18 12	43545.61	0.00	337.80	0.00	20.51	7.40	1031.75
2002 09 19 12	43545.61	0.00	349.85	0.00	21.10	7.01	1002.50
2002 09 20 12	43199.99	0.00	324.43	0.00	23.21	10.21	1256.92
2002 09 21 12	43199.99	0.00	240.15	0.00	22.78	13.92	1589.46
2002 09 22 12	42854.43	0.00	275.27	0.00	25.15	14.36	1641.12
2002 09 23 12	42854.43	11.42	174.71	0.00	23.03	14.40	1636.22
2002 09 24 12	42508.81	15.53	200.67	0.00	20.12	10.19	1255.33
2002 09 25 12	42361.27	0.00	328.98	0.00	19.91	6.72	983.05
2002 09 26 12	42163.20	0.00	338.98	0.00	20.80	6.61	975.57
2002 09 27 12	41817.59	3.08	250.86	0.00	18.35	8.74	1139.50
2002 09 28 12	41817.59	30.99	179.17	0.00	17.43	8.75	1140.31
2002 09 29 12	41472.01	0.00	366.16	0.00	18.93	2.15	711.50
2002 09 30 12	41472.01	0.00	330.69	0.00	16.18	2.56	738.54
2002 10 01 12	41126.39	1.94	209.59	0.00	19.10	10.33	1266.18
2002 10 02 12	41126.39	0.00	304.19	0.00	25.22	12.02	1401.35
2002 10 03 12	40780.79	4.98	258.74	0.00	23.79	7.03	1002.09
2002 10 04 12	40665.18	1.49	317.88	0.00	13.50	-0.23	601.33
2002 10 05 12	40435.20	2.95	230.67	0.00	19.07	6.49	967.73
2002 10 06 12	40089.58	4.35	266.70	0.00	21.67	4.14	815.96
2002 10 07 12	40089.58	0.00	306.12	0.00	15.23	1.65	690.80
2002 10 08 12	39744.00	0.00	313.01	0.00	14.86	0.65	634.60
2002 10 09 12	39744.00	0.00	304.74	0.00	11.93	-1.56	548.30
2002 10 10 12	39398.37	0.06	235.64	0.00	10.94	1.68	692.10
2002 10 11 12	39398.37	0.00	194.07	0.00	12.18	4.86	866.29
2002 10 12 12	39052.79	0.00	256.48	0.00	14.90	4.41	832.92
2002 10 13 12	39052.79	0.00	261.04	0.00	14.57	3.74	799.86
2002 10 14 12	38707.20	12.10	182.47	0.00	13.02	3.28	775.01
2002 10 15 12	38684.80	0.00	295.88	0.00	10.69	-2.54	508.14
2002 10 16 12	38361.60	0.00	291.92	0.00	10.82	-2.51	510.80
2002 10 17 12	38245.98	20.59	196.90	0.00	12.52	0.86	646.86
2002 10 18 12	38016.01	1.97	268.62	0.00	13.11	-0.52	590.15
2002 10 19 12	37817.04	5.38	200.91	0.00	10.10	-2.15	524.30
2002 10 20 12	37670.39	6.86	142.35	0.00	10.16	2.35	722.82
2002 10 21 12	37406.74	0.00	251.85	0.00	7.92	-3.37	476.09
2002 10 22 12	37324.79	0.00	249.96	0.00	7.59	-3.78	457.40
2002 10 23 12	37061.13	0.00	236.67	0.00	7.08	-3.62	463.20
2002 10 24 12	36979.17	0.00	187.39	0.00	6.89	-1.14	563.39
2002 10 25 12	36715.56	0.00	187.37	0.00	7.45	-0.61	586.48
2002 10 26 12	36633.59	1.64	226.07	0.00	8.99	-1.88	536.51
2002 10 27 12	36369.95	17.35	122.66	0.00	7.78	0.79	644.96
2002 10 28 12	36288.00	0.00	204.89	0.00	8.12	-1.18	563.20
2002 10 29 12	36089.04	0.00	222.43	0.00	6.91	-3.44	471.95
2002 10 30 12	35942.42	0.00	219.72	0.00	5.82	-4.38	440.00
2002 10 31 12	35794.87	0.00	241.45	0.00	6.25	-5.95	391.65
2002 11 01 12	35596.81	0.00	231.51	0.00	7.20	-4.40	441.29
2002 11 02 12	35481.20	2.91	214.02	0.00	6.25	-7.11	354.34
2002 11 03 12	35251.21	0.00	216.40	0.00	-0.31	-9.17	301.51
2002 11 04 12	35228.81	0.00	244.53	0.00	2.52	-8.29	326.22
2002 11 05 12	34905.61	5.66	143.09	0.00	1.79	-5.81	400.12
2002 11 06 12	34905.61	17.93	119.26	0.00	3.98	-2.22	519.85
2002 11 07 12	34560.00	32.38	127.05	0.00	3.43	-3.49	480.00
2002 11 08 12	34560.00	0.00	261.48	0.00	4.04	-9.85	291.94
2002 11 09 12	34296.34	0.00	229.50	0.00	5.84	-5.40	409.13
2002 11 10 12	34214.41	0.00	225.77	0.00	13.09	1.22	668.35
2002 11 11 12	34098.79	3.17	122.46	0.00	15.25	7.41	1033.17
2002 11 12 12	33868.81	6.58	136.45	0.00	14.71	5.05	877.44
2002 11 13 12	33868.81	19.17	80.61	0.00	8.19	3.25	779.18
2002 11 14 12	33605.18	12.96	97.36	0.00	6.40	0.45	635.82
2002 11 15 12	33523.20	0.00	208.18	0.00	7.70	-3.76	461.20
2002 11 16 12	33444.50	0.00	232.66	0.00	12.09	-4.24	448.74
2002 11 17 12	33177.60	19.12	76.63	0.00	0.48	-4.04	456.90
2002 11 18 12	33177.60	25.95	82.23	0.00	2.07	-2.80	500.48
2002 11 19 12	33030.06	0.00	150.28	0.00	1.63	-5.39	417.29
2002 11 20 12	32832.01	2.02	138.11	0.00	3.60	-3.68	470.18
2002 11 21 12	32832.01	0.00	175.51	0.00	7.18	-1.82	536.75
2002 11 22 12	32684.47	9.45	126.20	0.00	5.90	-2.57	506.62
2002 11 23 12	32486.41	12.85	101.00	0.00	6.78	0.34	623.77
2002 11 24 12	32486.41	0.00	173.22	0.00	6.04	-3.10	488.31
2002 11 25 12	32370.79	0.00	160.60	0.00	4.42	-3.72	463.53
2002 11 26 12	32150.67	0.00	160.68	0.00	4.23	-4.03	454.72
2002 11 27 12	32140.80	0.00	180.61	0.00	3.71	-6.33	374.08
2002 11 28 12	32118.40	0.00	175.05	0.00	-2.11	-11.54	245.57
2002 11 29 12	31941.83	0.00	190.72	0.00	-2.12	-13.38	220.06
2002 11 30 12	31795.20	4.07	115.82	0.00	0.83	-6.58	377.33
2002 12 01 12	31795.20	1.10	165.35	0.00	4.18	-4.07	453.64
2002 12 02 12	31772.81	0.00	205.62	0.00	1.74	-10.54	270.88
2002 12 03 12	31647.67	2.42	180.96	0.00	-1.34	-12.06	240.00
2002 12 04 12	31459.46	0.00	180.37	0.00	-6.91	-15.62	183.85
2002 12 05 12	31449.59	0.00	187.37	0.00	-5.98	-15.42	186.97
2002 12 06 12	31449.59	0.00	184.96	0.00	-3.52	-13.00	224.79
2002 12 07 12	31427.19	0.00	208.64	0.00	-0.11	-12.72	228.39
2002 12 08 12	31333.97	0.00	204.87	0.00	4.09	-8.39	321.72
2002 12 09 12	31250.63	0.00	230.16	0.00	4.79	-19.89	124.62
2002 12 10 12	31113.88	0.00	201.24	0.00	-5.73	-17.94	146.36
2002 12 11 12	31104.01	0.00	191.53	0.00	1.33	-10.20	280.42
2002 12 12 12	31104.01	0.82	167.60	0.00	2.71	-7.28	350.64
2002 12 13 12	31104.01	12.46	126.70	0.00	2.54	-6.91	361.71
2002 12 14 12	31104.01	23.04	179.19	0.00	5.33	-7.26	360.00
2002 12 15 12	31104.01	54.98	86.32	0.00	3.85	-1.95	524.26
2002 12 16 12	31081.61	0.00	152.42	0.00	2.23	-5.65	403.77
2002 12 17 12	31025.30	0.00	160.08	0.00	-2.07	-10.47	280.00
2002 12 18 12	30988.39	0.00	162.65	0.00	-2.55	-11.25	259.75
2002 12 19 12	30988.39	0.00	208.49	0.00	2.61	-11.79	245.18
2002 12 20 12	30988.39	4.72	195.11	0.00	5.89	-7.70	342.64
2002 12 21 12	30988.39	39.43	138.27	0.00	9.35	-2.29	520.00
2002 12 22 12	30988.39	0.00	136.59	0.00	4.50	-2.91	486.89
2002 12 23 12	30988.39	0.00	136.54	0.00	3.91	-3.50	476.91
2002 12 24 12	31025.30	0.00	136.64	0.00	2.92	-4.44	440.28
2002 12 25 12	31025.30	0.00	168.21	0.00	-0.79	-10.35	279.18
2002 12 26 12	31081.61	16.58	105.23	0.00	-2.03	-9.40	300.62
2002 12 27 12	31104.01	0.00	161.22	0.00	-2.16	-10.85	267.46
2002 12 28 12	31104.01	0.00	218.75	0.00	-2.10	-17.75	160.00
2002 12 29 12	31104.01	0.00	200.54	0.00	-0.61	-13.23	220.55
2002 12 30 12	31104.01	0.00	208.83	0.00	0.83	-13.15	224.48
2002 12 31 12	31104.01	0.40	175.60	0.00	-4.51	-14.95	192.32
2003 01 01 12	31185.97	5.60	142.53	0.00	3.67	-7.97	333.86
2003 01 02 12	31302.05	0.00	202.28	0.00	2.08	-10.72	271.43
2003 01 03 12	31370.88	0.00	136.52	0.00	-3.60	-10.69	270.22
2003 01 04 12	31449.59	11.05	94.60	0.00	-1.34	-7.76	342.41
2003 01 05 12	31449.59	20.84	79.98	0.00	-2.52	-7.71	343.00
2003 01 06 12	31449.59	1.33	114.25	0.00	-2.08	-7.65	344.24
2003 01 07 12	31596.23	0.00	130.73	0.00	-1.80	-8.22	327.54
2003 01 08 12	31716.49	0.00	200.45	0.00	-2.35	-13.42	218.74
2003 01 09 12	31795.20	0.00	188.28	0.00	-3.77	-13.66	214.66
2003 01 10 12	31795.20	0.00	208.35	0.00	-4.72	-16.13	176.19
2003 01 11 12	31805.06	0.88	171.81	0.00	-9.26	-17.69	154.05
2003 01 12 12	32025.18	0.00	217.52	0.00	-7.17	-19.10	133.39
2003 01 13 12	32140.80	0.00	213.07	0.00	-3.39	-14.80	190.82
2003 01 14 12	32140.80	0.00	225.81	0.00	-2.13	-14.64	195.18
2003 01 15 12	32287.44	0.00	247.72	0.00	-8.05	-22.94	98.35
2003 01 16 12	32464.01	0.00	230.50	0.00	-9.97	-22.35	105.43
2003 01 17 12	32486.41	0.00	240.98	0.00	-6.32	-19.72	126.39
2003 01 18 12	32496.27	0.00	271.12	0.00	-5.54	-24.18	80.00
2003 01 19 12	32809.61	1.44	250.68	0.00	-9.28	-23.24	97.09
2003 01 20 12	32832.01	1.08	261.75	0.00	-3.82	-19.07	133.86
2003 01 21 12	32841.88	0.00	220.11	0.00	-6.81	-17.26	159.63
2003 01 22 12	33155.20	0.00	199.85	0.00	-12.72	-21.59	116.49
2003 01 23 12	33177.60	0.01	179.12	0.00	-13.25	-20.85	119.33
2003 01 24 12	33324.24	0.00	206.12	0.00	-9.14	-18.17	148.49
2003 01 25 12	33523.20	0.00	261.88	0.00	-7.18	-20.42	119.81
2003 01 26 12	33523.20	0.00	227.14	0.00	-4.92	-15.07	190.59
2003 01 27 12	33753.20	5.44	163.55	0.00	-2.33	-11.76	250.80
2003 01 28 12	33868.81	1.69	254.03	0.00	-6.42	-22.09	108.62
2003 01 29 12	33950.76	0.00	224.73	0.00	-8.71	-18.06	145.93
2003 01 30 12	34214.41	0.00	295.47	0.00	-2.90	-18.39	144.97
2003 01 31 12	34214.41	0.00	273.57	0.00	-0.49	-13.17	224.64
2003 02 01 12	34481.29	0.00	197.78	0.00	2.03	-5.69	402.50
2003 02 02 12	34560.00	12.75	84.73	0.00	1.32	-2.72	502.98
2003 02 03 12	34758.06	25.09	88.87	0.00	2.08	-2.10	525.53
2003 02 04 12	34905.61	0.92	255.73	0.00	3.03	-7.84	340.68
2003 02 05 12	34987.57	11.25	196.77	0.00	4.03	-6.69	369.04
2003 02 06 12	35251.21	0.00	298.80	0.00	-2.94	-16.06	170.59
2003 02 07 12	35251.21	0.02	274.78	0.00	-4.50	-15.51	184.38
2003 02 08 12	35596.81	3.84	228.62	0.00	-3.77	-16.81	160.03
2003 02 09 12	35596.81	0.00	284.50	0.00	-2.34	-13.63	217.01
2003 02 10 12	35942.42	0.00	343.57	0.00	1.27	-15.84	181.10
2003 02 11 12	35942.42	1.99	273.70	0.00	-0.04	-11.84	247.34
2003 02 12 12	36288.00	1.36	331.83	0.00	-7.12	-21.63	116.50
2003 02 13 12	36288.00	3.66	267.61	0.00	-7.84	-22.69	103.52
2003 02 14 12	36633.59	0.00	288.56	0.00	-16.76	-27.21	75.72
2003 02 15 12	36633.59	0.00	290.87	0.00	-15.99	-26.34	79.90
2003 02 16 12	36979.17	0.00	301.37	0.00	-13.98	-24.67	80.00
2003 02 17 12	36979.17	0.00	320.71	0.00	-11.18	-22.62	103.13
2003 02 18 12	37324.79	0.03	279.82	0.00	-9.17	-18.22	144.86
2003 02 19 12	37324.79	4.35	175.51	0.00	-3.23	-10.25	279.19
2003 02 20 12	37670.39	1.60	257.68	0.00	2.04	-6.56	374.38
2003 02 21 12	37670.39	0.00	307.57	0.00	6.85	-3.18	482.27
2003 02 22 12	38016.01	0.00	333.76	0.00	7.83	-3.51	468.83
2003 02 23 12	38016.01	15.04	201.81	0.00	2.85	-5.17	416.11
2003 02 24 12	38361.60	18.26	264.10	0.00	1.13	-10.09	281.95
2003 02 25 12	38361.60	0.00	285.71	0.00	-3.86	-11.89	248.44
2003 02 26 12	38707.20	0.00	407.61	0.00	-7.76	-21.93	114.43
2003 02 27 12	38707.20	0.00	421.61	0.00	-7.97	-23.00	98.61
2003 02 28 12	39052.79	0.00	442.08	0.00	-2.19	-19.80	121.06
2003 03 01 12	39062.66	0.00	453.89	0.00	1.95	-17.44	154.10
2003 03 02 12	39398.37	7.39	242.86	0.00	3.38	-6.01	394.22
2003 03 03 12	39628.39	32.28	352.06	0.00	3.21	-15.77	179.16
2003 03 04 12	39744.00	0.00	386.46	0.00	-9.93	-21.42	115.55
2003 03 05 12	40089.58	4.82	334.08	0.00	-1.72	-17.13	161.31
2003 03 06 12	40089.58	15.43	259.86	0.00	-0.09	-9.85	289.29
2003 03 07 12	40435.20	0.00	459.06	0.00	-4.51	-19.90	124.64
2003 03 08 12	40435.20	0.15	374.01	0.00	-0.67	-11.25	261.01
2003 03 09 12	40780.79	0.05	374.90	0.00	4.85	-5.80	400.85
2003 03 10 12	40780.79	0.00	518.21	0.00	3.93	-17.86	148.52
2003 03 11 12	41126.39	0.00	431.49	0.00	-5.56	-18.37	145.78
2003 03 12 12	41126.39	0.00	408.98	0.00	1.15	-10.44	273.96
2003 03 13 12	41472.01	0.00	443.62	0.00	4.33	-8.91	309.80
2003 03 14 12	41817.59	0.00	412.32	0.00	-4.42	-15.66	182.75
2003 03 15 12	41817.59	0.00	426.51	0.00	-4.53	-16.12	178.93
2003 03 16 12	42163.20	0.00	480.45	0.00	1.55	-12.87	225.88
2003 03 17 12	42163.20	0.00	348.94	0.00	5.20	-3.71	470.13
2003 03 18 12	42508.81	0.00	320.66	0.00	6.42	-1.52	547.43
2003 03 19 12	42508.81	0.00	486.98	0.00	4.49	-9.75	293.33
2003 03 20 12	42854.43	0.00	413.24	0.00	2.61	-8.08	334.01
2003 03 21 12	42854.43	16.72	279.77	0.00	7.58	-1.89	533.70
2003 03 22 12	43199.99	2.16	335.33	0.00	10.47	0.68	633.96
2003 03 23 12	43545.61	7.35	268.52	0.00	9.51	0.56	640.00
2003 03 24 12	43545.61	10.26	243.80	0.00	5.69	-2.04	532.49
2003 03 25 12	43891.18	0.00	347.62	0.00	6.92	-1.43	551.88
2003 03 26 12	43891.18	0.00	218.80	0.00	5.59	0.73	636.75
2003 03 27 12	44236.80	8.86	234.11	0.00	7.98	0.77	638.96
2003 03 28 12	44236.80	0.00	486.86	0.00	11.32	-1.68	544.29
2003 03 29 12	44582.40	2.07	394.37	0.00	10.88	0.86	646.10
2003 03 30 12	44582.40	21.18	247.85	0.00	10.13	2.82	746.27
2003 03 31 12	44927.99	16.62	266.02	0.00	5.43	-2.05	528.33
2003 04 01 12	45273.61	2.30	371.17	0.00	-0.16	-8.43	322.38
2003 04 02 12	45273.61	0.35	381.85	0.00	1.72	-6.16	389.92
2003 04 03 12	45619.19	0.00	364.12	0.00	3.94	-3.23	479.22
2003 04 04 12	45619.19	0.00	503.85	0.00	4.02	-6.97	358.42
2003 04 05 12	45964.80	6.24	267.77	0.00	-1.99	-7.48	344.16
2003 04 06 12	45964.80	11.81	240.39	0.00	-0.69	-6.31	381.58
2003 04 07 12	46310.38	0.00	539.73	0.00	1.92	-9.41	300.36
2003 04 08 12	46310.38	0.00	485.31	0.00	3.04	-6.38	383.60
2003 04 09 12	46656.00	0.00	459.09	0.00	4.57	-3.77	462.29
2003 04 10 12	46771.62	0.00	549.97	0.00	7.73	-3.50	469.64
2003 04 11 12	47001.59	0.00	600.24	0.00	11.26	-2.82	500.29
2003 04 12 12	47337.32	11.20	385.08	0.00	9.86	-0.04	610.93
2003 04 13 12	47347.18	3.01	394.59	0.00	9.31	-0.27	597.18
2003 04 14 12	47692.79	0.00	603.81	0.00	9.38	-4.19	449.16
2003 04 15 12	47692.79	0.00	498.38	0.00	12.10	2.78	748.68
2003 04 16 12	48038.42	1.28	604.54	0.00	17.19	2.61	740.80
2003 04 17 12	48038.42	0.00	647.25	0.00	7.33	-9.64	294.57
2003 04 18 12	48383.98	0.00	576.00	0.00	3.17	-8.45	320.68
2003 04 19 12	48383.98	0.00	578.47	0.00	8.30	-3.68	469.04
2003 04 20 12	48729.59	0.00	619.88	0.00	14.76	-0.35	596.69
2003 04 21 12	48729.59	0.00	608.56	0.00	15.88	1.26	661.87
2003 04 22 12	49075.20	4.00	404.46	0.00	13.63	2.50	720.00
2003 04 23 12	49075.20	8.85	222.59	0.00	8.33	3.27	776.10
2003 04 24 12	49420.80	4.96	230.82	0.00	8.18	3.00	760.00
2003 04 25 12	49420.80	1.00	405.23	0.00	7.27	0.17	613.87
2003 04 26 12	49766.41	4.27	448.62	0.00	9.53	-1.06	567.63
2003 04 27 12	49766.41	11.73	308.86	0.00	9.01	1.80	700.70
2003 04 28 12	50112.01	0.10	589.24	0.00	14.03	0.91	642.94
2003 04 29 12	50112.01	0.00	608.67	0.00	22.40	6.52	973.61
2003 04 30 12	50457.57	0.00	653.17	0.00	21.98	1.06	658.23
2003 05 01 12	50457.57	0.00	528.97	0.00	13.09	1.90	700.56
2003 05 02 12	50803.18	5.28	232.74	0.00	9.58	3.96	813.89
2003 05 03 12	50803.18	5.57	277.46	0.00	10.62	3.74	796.17
2003 05 04 12	51148.78	0.00	607.96	0.00	15.46	0.43	628.24
2003 05 05 12	51148.78	0.00	644.97	0.00	19.46	0.02	601.32
2003 05 06 12	51412.40	0.00	536.80	0.00	18.10	5.50	908.29
2003 05 07 12	51494.39	23.74	342.04	0.00	15.58	5.86	923.32
2003 05 08 12	51641.94	0.00	541.29	0.00	16.76	4.02	815.85
2003 05 09 12	51839.99	0.00	557.86	0.00	17.20	3.54	793.26
2003 05 10 12	51862.39	0.00	499.17	0.00	14.49	3.31	774.80
2003 05 11 12	52185.61	0.00	447.87	0.00	13.01	3.56	787.73
2003 05 12 12	52185.61	9.34	337.45	0.00	13.08	3.56	787.38
2003 05 13 12	52449.24	7.29	185.33	0.00	8.28	3.62	790.22
2003 05 14 12	52531.20	1.73	335.60	0.00	10.94	4.11	823.36
2003 05 15 12	52646.80	0.63	332.22	0.00	12.12	5.65	920.00
2003 05 16 12	52876.81	0.00	550.33	0.00	12.48	0.04	603.42
2003 05 17 12	52876.81	0.00	603.99	0.00	16.07	0.41	624.25
2003 05 18 12	53075.77	0.00	629.31	0.00	21.51	1.99	718.40
2003 05 19 12	53222.39	0.00	617.01	0.00	26.93	6.42	953.69
2003 05 20 12	53244.79	0.00	599.80	0.00	25.41	6.89	990.05
2003 05 21 12	53558.15	0.00	550.81	0.00	26.33	10.76	1297.41
2003 05 22 12	53568.00	1.26	470.15	0.00	20.38	9.03	1162.72
2003 05 23 12	53590.40	2.15	301.10	0.00	12.55	6.06	936.95
2003 05 24 12	53903.74	6.89	180.78	0.00	10.91	6.03	934.23
2003 05 25 12	53913.61	13.84	189.98	0.00	11.57	6.39	951.88
2003 05 26 12	53936.00	10.41	257.66	0.00	14.13	6.80	987.37
2003 05 27 12	54112.55	10.78	299.02	0.00	16.16	7.16	1012.43
2003 05 28 12	54259.18	0.00	453.75	0.00	17.32	6.57	965.68
2003 05 29 12	54259.18	4.57	279.75	0.00	15.70	7.48	1038.34
2003 05 30 12	54374.80	0.57	437.61	0.00	18.39	8.07	1085.85
2003 05 31 12	54594.89	0.00	451.23	0.00	19.70	8.83	1146.68
2003 06 01 12	54604.77	0.00	410.14	0.00	19.00	9.38	1190.64
2003 06 02 12	54604.77	33.47	281.14	0.00	17.20	8.59	1126.92
2003 06 03 12	54683.48	0.00	536.77	0.00	20.31	4.70	858.23
2003 06 04 12	54803.77	0.00	529.22	0.00	20.94	5.71	914.68
2003 06 05 12	54950.41	0.00	474.10	0.00	19.58	7.28	1024.09
2003 06 06 12	54950.41	10.13	332.63	0.00	20.35	8.96	1156.99
2003 06 07 12	54950.41	0.00	486.87	0.00	24.60	10.33	1266.61
2003 06 08 12	55029.13	0.21	442.73	0.00	21.89	10.20	1256.10
2003 06 09 12	55097.95	0.20	331.34	0.00	18.36	10.70	1296.38
2003 06 10 12	55214.08	0.00	404.31	0.00	19.14	9.17	1173.37
2003 06 11 12	55296.01	0.00	474.35	0.00	22.18	8.92	1153.97
2003 06 12 12	55296.01	5.27	323.25	0.00	22.93	11.78	1382.35
2003 06 13 12	55296.01	0.00	483.34	0.00	23.49	9.09	1167.10
2003 06 14 12	55296.01	13.37	303.85	0.00	19.81	9.25	1180.03
2003 06 15 12	55296.01	19.58	173.49	0.00	12.40	7.25	1020.20
2003 06 16 12	55318.41	1.01	421.35	0.00	16.08	5.62	909.57
2003 06 17 12	55374.72	0.00	483.14	0.00	21.17	7.66	1053.07
2003 06 18 12	55374.72	0.00	478.06	0.00	22.95	9.54	1203.41
2003 06 19 12	55411.63	4.22	307.94	0.00	22.02	11.86	1388.90
2003 06 20 12	55411.63	0.00	414.27	0.00	22.53	12.38	1430.18
2003 06 21 12	55411.63	0.00	511.72	0.00	25.28	9.63	1210.59
2003 06 22 12	55411.63	0.00	451.93	0.00	25.16	12.82	1469.54
2003 06 23 12	55411.63	0.00	410.47	0.00	22.78	12.33	1426.66
2003 06 24 12	55411.63	5.40	330.79	0.00	25.28	13.53	1562.14
2003 06 25 12	55374.72	0.00	454.45	0.00	27.42	14.05	1603.80
2003 06 26 12	55318.41	0.00	448.75	0.00	28.64	15.14	1729.58
2003 06 27 12	55296.01	0.00	455.00	0.00	30.63	16.24	1840.14
2003 06 28 12	55296.01	0.00	451.76	0.00	29.54	15.43	1754.46
2003 06 29 12	55296.01	0.00	458.29	0.00	28.92	14.49	1649.78
2003 06 30 12	55296.01	0.00	458.86	0.00	27.98	13.61	1567.00
2003 07 01 12	55296.01	0.00	459.99	0.00	26.49	12.23	1417.17
2003 07 02 12	55286.14	0.00	431.69	0.00	27.00	13.91	1593.16
2003 07 03 12	55149.38	0.00	391.93	0.00	24.98	13.95	1594.26
2003 07 04 12	55066.03	0.00	424.87	0.00	27.87	15.07	1710.99
2003 07 05 12	54972.81	0.00	435.36	0.00	29.54	15.91	1792.30
2003 07 06 12	54950.41	0.00	412.37	0.00	30.17	17.42	1987.58
2003 07 07 12	54950.41	0.00	512.49	0.00	29.47	10.71	1246.07
2003 07 08 12	54940.54	0.00	385.55	0.00	26.25	15.14	1731.35
2003 07 09 12	54752.31	0.18	258.48	0.00	22.37	15.55	1764.30
2003 07 10 12	54627.16	0.00	508.41	0.00	23.82	6.56	967.19
2003 07 11 12	54604.77	4.28	342.08	0.00	22.05	11.24	1339.50
2003 07 12 12	54604.77	8.39	163.39	0.00	17.56	12.18	1414.21
2003 07 13 12	54458.14	0.00	367.78	0.00	23.55	13.50	1560.30
2003 07 14 12	54281.58	0.00	455.38	0.00	26.06	11.88	1388.26
2003 07 15 12	54259.18	0.00	406.10	0.00	25.19	13.24	1518.06
2003 07 16 12	54249.32	0.00	410.82	0.00	24.08	12.01	1400.42
2003 07 17 12	54029.21	3.63	240.42	0.00	21.86	13.34	1534.89
2003 07 18 12	53913.61	0.00	403.75	0.00	26.37	14.42	1638.23
2003 07 19 12	53913.61	4.40	372.48	0.00	26.80	14.39	1634.74
2003 07 20 12	53715.53	0.00	428.24	0.00	25.25	12.21	1416.77
2003 07 21 12	53568.00	0.00	410.10	0.00	24.61	12.51	1440.51
2003 07 22 12	53568.00	0.84	254.08	0.00	23.71	16.80	1903.97
2003 07 23 12	53369.96	11.84	198.38	0.00	23.95	16.94	1915.38
2003 07 24 12	53222.39	15.53	130.84	0.00	22.40	18.00	2079.51
2003 07 25 12	53222.39	0.57	240.27	0.00	23.62	17.42	1987.06
2003 07 26 12	52955.52	0.00	403.31	0.00	27.12	15.49	1756.18
2003 07 27 12	52876.81	2.38	316.15	0.00	27.37	17.78	2044.54
2003 07 28 12	52794.83	1.92	394.08	0.00	24.50	13.50	1560.00
2003 07 29 12	52531.20	0.00	426.78	0.00	24.17	12.20	1415.96
2003 07 30 12	52531.20	0.00	468.30	0.00	25.28	10.95	1315.07
2003 07 31 12	52301.22	0.00	439.14	0.00	26.24	13.31	1529.06
2003 08 01 12	52185.61	0.00	421.40	0.00	25.74	13.73	1578.08
2003 08 02 12	52103.66	18.99	243.86	0.00	22.08	13.94	1595.45
2003 08 03 12	51839.99	6.13	173.29	0.00	20.50	15.09	1725.63
2003 08 04 12	51839.99	2.85	243.60	0.00	23.35	16.04	1813.81
2003 08 05 12	51494.39	8.35	210.51	0.00	22.98	16.32	1848.47
2003 08 06 12	51494.39	6.85	124.21	0.00	20.54	16.97	1922.65
2003 08 07 12	51227.49	0.99	255.64	0.00	22.83	17.11	1942.83
2003 08 08 12	51148.78	3.25	194.43	0.00	22.44	16.67	1890.39
2003 08 09 12	50918.81	2.00	322.16	0.00	24.68	17.27	1967.11
2003 08 10 12	50803.18	0.00	350.19	0.00	26.57	18.17	2089.89
2003 08 11 12	50605.12	2.34	278.81	0.00	26.50	18.63	2147.38
2003 08 12 12	50457.57	8.92	250.97	0.00	27.32	19.22	2234.98
2003 08 13 12	50310.96	0.00	343.13	0.00	25.38	17.37	1978.52
2003 08 14 12	50112.01	0.00	414.63	0.00	27.08	16.20	1837.62
2003 08 15 12	50030.06	0.00	468.28	0.00	27.43	13.22	1519.59
2003 08 16 12	49766.41	0.00	441.76	0.00	26.76	14.29	1629.39
2003 08 17 12	49684.42	0.21	430.43	0.00	27.37	15.08	1722.50
2003 08 18 12	49420.80	0.00	434.37	0.00	25.77	13.76	1573.80
2003 08 19 12	49338.85	0.00	457.05	0.00	25.74	12.24	1419.54
2003 08 20 12	49075.20	0.00	440.93	0.00	28.84	15.43	1746.49
2003 08 21 12	48993.24	0.00	396.18	0.00	28.66	17.54	2006.12
2003 08 22 12	48729.59	0.00	425.70	0.00	29.27	16.17	1833.94
2003 08 23 12	48582.96	0.00	438.39	0.00	28.31	14.26	1630.33
2003 08 24 12	48383.98	0.00	479.71	0.00	23.64	6.96	998.15
2003 08 25 12	48185.94	0.00	393.68	0.00	18.59	8.12	1089.65
2003 08 26 12	48038.42	0.00	378.87	0.00	22.01	11.68	1374.37
2003 08 27 12	47715.19	2.31	334.06	0.00	24.45	14.37	1633.13
2003 08 28 12	47692.79	0.00	455.64	0.00	26.79	10.66	1287.07
2003 08 29 12	47347.18	1.43	393.51	0.00	22.02	8.76	1140.47
2003 08 30 12	47347.18	3.46	316.09	0.00	22.28	12.04	1403.04
2003 08 31 12	47001.59	0.00	467.12	0.00	23.88	6.70	976.74
2003 09 01 12	47001.59	0.00	415.23	0.00	21.60	8.75	1139.32
2003 09 02 12	46656.00	0.00	375.72	0.00	21.47	10.37	1269.10
2003 09 03 12	46656.00	0.00	445.24	0.00	20.16	4.72	856.76
2003 09 04 12	46310.38	24.28	257.45	0.00	19.94	9.89	1230.99
2003 09 05 12	46310.38	30.64	197.99	0.00	19.75	12.36	1429.04
2003 09 06 12	45964.80	0.00	396.48	0.00	24.42	10.67	1293.89
2003 09 07 12	45734.82	0.00	404.58	0.00	24.43	9.72	1217.71
2003 09 08 12	45619.19	0.00	412.34	0.00	23.46	7.96	1077.13
2003 09 09 12	45273.61	0.00	418.46	0.00	21.24	5.24	889.48
2003 09 10 12	45273.61	0.00	402.34	0.00	19.81	4.83	865.98
2003 09 11 12	44927.99	0.00	378.18	0.00	22.27	8.14	1090.80
2003 09 12 12	44927.99	0.00	392.45	0.00	22.25	6.81	984.67
2003 09 13 12	44582.40	0.00	393.39	0.00	23.28	7.23	1018.40
2003 09 14 12	44582.40	0.00	371.22	0.00	25.63	10.49	1278.98
2003 09 15 12	44236.80	0.00	307.64	0.00	26.62	14.85	1695.15
2003 09 16 12	44090.14	0.00	319.00	0.00	24.98	12.77	1461.91
2003 09 17 12	43891.18	6.93	251.80	0.00	23.30	10.32	1265.69
2003 09 18 12	43545.61	0.00	370.66	0.00	23.51	7.99	1078.79
2003 09 19 12	43545.61	0.00	365.59	0.00	23.22	7.84	1066.88
2003 09 20 12	43199.99	4.09	174.14	0.00	20.88	12.49	1441.12
2003 09 21 12	43199.99	4.72	150.32	0.00	19.89	12.86	1475.31
2003 09 22 12	42854.43	0.00	320.78	0.00	23.38	10.63	1290.57
2003 09 23 12	42854.43	6.84	207.57	0.00	21.55	11.26	1340.98
2003 09 24 12	42508.81	7.12	195.43	0.00	19.94	10.68	1294.35
2003 09 25 12	42361.27	0.00	317.96	0.00	21.45	8.78	1142.19
2003 09 26 12	42163.20	0.05	244.09	0.00	20.09	11.03	1322.30
2003 09 27 12	41817.59	6.89	127.58	0.00	19.24	13.27	1524.27
2003 09 28 12	41817.59	19.88	142.85	0.00	21.97	15.09	1715.37
2003 09 29 12	41472.01	14.31	110.18	0.00	19.94	14.81	1690.13
2003 09 30 12	41472.01	3.12	259.89	0.00	19.08	7.36	1028.98
2003 10 01 12	41126.39	0.00	317.65	0.00	17.25	4.86	867.92
2003 10 02 12	41126.39	5.94	195.05	0.00	15.16	5.85	923.81
2003 10 03 12	40780.79	5.91	228.60	0.00	13.78	2.29	720.46
2003 10 04 12	40665.18	0.00	273.98	0.00	13.08	3.11	766.52
2003 10 05 12	40435.20	14.89	198.13	0.00	13.68	3.96	810.35
2003 10 06 12	40089.58	0.00	311.17	0.00	13.45	1.01	652.49
2003 10 07 12	40089.58	0.00	299.90	0.00	12.32	0.57	630.26
2003 10 08 12	39744.00	0.00	275.43	0.00	14.15	3.60	793.17
2003 10 09 12	39744.00	0.00	299.08	0.00	19.29	6.72	977.74
2003 10 10 12	39398.37	0.00	299.80	0.00	18.18	5.56	906.61
2003 10 11 12	39398.37	0.00	314.26	0.00	20.23	5.84	922.34
2003 10 12 12	39052.79	0.00	327.31	0.00	23.35	6.41	953.03
2003 10 13 12	39052.79	18.15	225.94	0.00	20.81	6.88	990.62
2003 10 14 12	38707.20	0.00	307.90	0.00	19.00	4.53	847.23
2003 10 15 12	38684.80	33.97	192.26	0.00	16.83	6.20	950.27
2003 10 16 12	38361.60	20.84	172.16	0.00	14.37	5.38	910.33
2003 10 17 12	38245.98	0.00	252.60	0.00	12.73	2.52	735.79
2003 10 18 12	38016.01	0.00	230.69	0.00	10.94	2.02	705.68
2003 10 19 12	37817.04	0.00	232.58	0.00	8.92	0.06	607.81
2003 10 20 12	37670.39	0.00	273.80	0.00	8.96	-2.65	503.21
2003 10 21 12	37406.74	18.81	176.75	0.00	9.91	0.38	630.18
2003 10 22 12	37324.79	12.75	164.75	0.00	9.66	0.90	647.19
2003 10 23 12	37061.13	5.74	56.90	0.00	2.89	0.42	631.17
2003 10 24 12	36979.17	2.34	140.53	0.00	4.87	-1.45	560.00
2003 10 25 12	36715.56	0.00	238.93	0.00	7.29	-2.47	507.11
2003 10 26 12	36633.59	0.00	248.35	0.00	11.30	0.43	626.21
2003 10 27 12	36369.95	23.59	84.49	0.00	14.15	9.79	1223.05
2003 10 28 12	36288.00	35.02	133.16	0.00	16.05	8.65	1132.14
2003 10 29 12	36089.04	14.98	154.86	0.00	14.69	5.65	912.20
2003 10 30 12	35942.42	35.96	162.58	0.00	16.22	6.29	942.91
2003 10 31 12	35794.87	0.00	251.26	0.00	14.12	1.40	677.35
2003 11 01 12	35596.81	0.00	242.77	0.00	15.91	3.41	779.17
2003 11 02 12	35481.20	0.00	247.27	0.00	17.61	3.98	813.38
2003 11 03 12	35251.21	0.65	81.43	0.00	6.98	3.64	792.06
2003 11 04 12	35228.81	3.04	101.33	0.00	7.13	1.55	684.58
2003 11 05 12	34905.61	1.86	122.60	0.00	4.63	-0.80	578.71
2003 11 06 12	34905.61	6.06	140.72	0.00	10.99	2.57	735.98
2003 11 07 12	34560.00	0.00	180.37	0.00	9.99	2.01	705.63
2003 11 08 12	34560.00	0.00	223.79	0.00	7.56	-3.49	467.83
2003 11 09 12	34296.34	0.00	177.71	0.00	-0.49	-8.04	334.68
2003 11 10 12	34214.41	0.00	212.42	0.00	2.12	-7.83	338.79
2003 11 11 12	34098.79	0.00	232.22	0.00	6.83	-5.51	407.50
2003 11 12 12	33868.81	5.43	133.21	0.00	8.29	0.41	628.22
2003 11 13 12	33868.81	15.61	142.25	0.00	10.89	2.06	706.68
2003 11 14 12	33605.18	25.01	163.25	0.00	9.79	-1.71	543.73
2003 11 15 12	33523.20	0.00	113.79	0.00	1.00	-3.55	467.77
2003 11 16 12	33444.50	0.00	166.34	0.00	3.05	-4.16	447.17
2003 11 17 12	33177.60	0.00	211.57	0.00	4.99	-6.00	391.37
2003 11 18 12	33177.60	0.00	217.21	0.00	6.70	-5.51	407.01
2003 11 19 12	33030.06	0.00	221.25	0.00	8.59	-4.97	423.96
2003 11 20 12	32832.01	18.46	143.80	0.00	14.18	3.57	788.76
2003 11 21 12	32832.01	42.15	120.21	0.00	13.42	5.32	899.97
2003 11 22 12	32684.47	0.00	162.24	0.00	10.18	1.94	702.61
2003 11 23 12	32486.41	0.00	184.34	0.00	8.41	-1.80	539.25
2003 11 24 12	32486.41	0.00	175.32	0.00	7.46	-2.03	527.52
2003 11 25 12	32370.79	3.30	124.93	0.00	7.34	-1.35	555.26
2003 11 26 12	32150.67	0.00	192.57	0.00	7.24	-4.49	440.00
2003 11 27 12	32140.80	0.00	163.31	0.00	5.29	-3.62	467.79
2003 11 28 12	32118.40	10.16	119.55	0.00	7.86	-0.35	596.84
2003 11 29 12	31941.83	21.26	143.42	0.00	15.00	1.59	685.56
2003 11 30 12	31795.20	0.00	191.32	0.00	12.32	-0.99	573.79
2003 12 01 12	31795.20	0.00	147.39	0.00	7.58	-0.57	586.11
2003 12 02 12	31772.81	1.00	195.82	0.00	5.60	-6.45	377.87
2003 12 03 12	31647.67	0.00	110.79	0.00	-4.25	-9.53	292.28
2003 12 04 12	31459.46	0.00	127.04	0.00	-4.14	-10.38	279.94
2003 12 05 12	31449.59	0.00	148.32	0.00	-4.40	-12.11	242.21
2003 12 06 12	31449.59	0.00	150.50	0.00	-4.09	-11.99	245.91
2003 12 07 12	31427.19	17.32	79.58	0.00	-2.42	-7.28	352.58
2003 12 08 12	31333.97	9.48	70.06	0.00	-1.14	-5.31	418.77
2003 12 09 12	31250.63	0.00	196.59	0.00	-0.15	-11.40	259.82
2003 12 10 12	31113.88	0.00	224.00	0.00	0.80	-16.83	163.18
2003 12 11 12	31104.01	0.00	224.08	0.00	3.30	-15.71	181.30
2003 12 12 12	31104.01	22.03	131.96	0.00	8.92	-1.52	549.32
2003 12 13 12	31104.01	0.00	186.58	0.00	1.36	-9.84	290.09
2003 12 14 12	31104.01	0.00	163.34	0.00	-7.43	-16.18	172.70
2003 12 15 12	31104.01	29.58	147.06	0.00	-2.02	-13.80	214.78
2003 12 16 12	31081.61	23.61	97.91	0.00	0.19	-6.32	380.23
2003 12 17 12	31025.30	0.00	202.67	0.00	3.12	-9.55	297.12
2003 12 18 12	30988.39	26.85	150.06	0.00	9.45	-3.50	468.22
2003 12 19 12	30988.39	0.00	183.56	0.00	4.35	-6.17	384.26
2003 12 20 12	30988.39	0.00	161.35	0.00	-0.69	-9.13	304.06
2003 12 21 12	30988.39	0.00	202.46	0.00	-1.46	-13.89	208.27
2003 12 22 12	30988.39	0.00	186.35	0.00	-0.47	-11.18	262.04
2003 12 23 12	30988.39	0.00	121.11	0.00	2.63	-3.44	472.19
2003 12 24 12	31025.30	0.00	176.47	0.00	8.39	-1.76	541.97
2003 12 25 12	31025.30	12.69	123.23	0.00	11.74	2.35	723.59
2003 12 26 12	31081.61	3.71	125.75	0.00	8.82	0.32	624.29
2003 12 27 12	31104.01	1.85	51.95	0.00	1.12	-1.31	556.90
2003 12 28 12	31104.01	0.00	178.99	0.00	2.88	-6.95	360.12
2003 12 29 12	31104.01	0.00	209.25	0.00	7.75	-5.94	393.80
2003 12 30 12	31104.01	0.00	205.15	0.00	9.08	-4.00	455.31
2003 12 31 12	31104.01	0.00	152.04	0.00	6.89	-0.95	574.94